,time,condition,epoch,Fz,C3,Cz,C4,Pz,PO7,Oz,PO8,F5,F7,F3,F1,F2,F4,F6,F8
0,0.0,1,0,19.391490515758626,49.46984982289341,61.009409665111846,38.406906501553664,-7.483888455609829,-41.458811365240194,12.27036581631215,93.8389098865476,212.82818864478534,272.89515973646496,240.94962875966468,100.37705835557728,-64.5254219209994,17.883494882638445,137.39407661820908,421.10203485638334
1,0.004,1,0,20.637615113940026,48.46217038079878,45.713339328844654,16.42885409165146,-15.95715780629115,10.184568327175853,181.33117069191843,357.06730679045734,424.20098654483485,278.6289497486381,-23.230941365639893,-7.787848082020985,26.743457736446487,379.6330047540354,893.3179138255607,732.9823282676218
2,0.008,1,0,22.38600804678348,46.798258760371766,31.067732754587663,-15.23826024399201,-15.20837402650318,59.874632513629386,310.47690321409266,387.6193571123995,176.65426912660962,-90.19543229342656,-19.128217807166692,241.86016306919308,641.1098059303656,703.9422194844374,269.01591717454403,-174.13207193246132
3,0.012,1,0,23.09706714091431,39.71301916134534,17.14998182984423,-6.655177685538071,27.088061943778975,131.31243015104275,130.991871860785,83.87455112301966,0.7415784221066417,-45.897411077576635,177.67793796056588,352.3789665761366,222.1599799116063,46.49539559639152,36.66385388577244,159.28526637669273
4,0.016,1,0,23.30201143629798,35.215299347926845,4.401536223692936,-13.44368481214697,64.77619890023307,157.37862686809896,108.95664207991348,-39.35642097591686,-39.1134351205873,184.91943165004622,333.7923828391272,125.60562420982946,39.8307113410617,47.79099411029384,317.06176976275117,344.5533180595211
5,0.02,1,0,23.518085601670002,28.722338130879535,-12.926485743851416,6.226286702469828,105.63431310619175,129.82308062800792,5.832715524464547,9.68249587249393,124.08495300643844,238.864128735714,110.23295173536404,-54.74690088116907,97.902597668277,383.4340992363158,289.20171495916054,-67.30250850055558
6,0.024,1,0,23.53135184676558,21.983248633054256,-5.961548891713136,34.66479011497972,106.26212809714443,72.85845862155892,-19.934934365187928,58.73455589145222,230.19947508140854,128.4364266788277,4.432512157521231,101.77989343265321,255.5019428254412,209.02431282290587,93.2575829730066,140.0694306655563
7,0.028,1,0,24.284803390353183,15.475522977605916,-12.746721802726547,62.99914181721426,103.82717177498048,5.959661231727125,1.2903227228277387,153.22580108784666,134.06752781538236,-15.637379749938418,22.306768016190773,209.8385134924541,146.4397056032456,17.173895726939122,168.15185623339417,209.26847487910965
8,0.032,1,0,23.41800744661902,7.7367417465664055,-3.3086482798691605,89.4845985228973,72.84155115117338,-18.65853138480786,73.14706226518017,202.54942400155937,13.521872486377433,-0.34735697099483787,187.35723045322135,164.366208753387,-25.075048641037057,183.87317460795268,355.2494585677106,35.20897031957398
9,0.036,1,0,23.094645783819843,2.220887606265155,11.46031884040465,103.77509801431134,37.90777677470582,-22.175002834858617,156.03668266065944,121.98627108531292,-20.12854746530212,166.8475870978029,208.313995270779,2.1632904880827226,126.95133775165677,210.58064323386873,2.204334623500756,13.463888580241075
10,0.04,1,0,23.12058178388628,-1.5880880761999983,23.026110841227734,101.31338382851423,-10.439751227714517,39.51758101798761,156.30184501226017,-0.8227107720568654,27.330532450124842,260.22450907832655,46.082589687259954,57.433055622211164,259.88194560810064,39.8983317617827,15.467294481441767,473.78949878397896
11,0.044,1,0,21.819119326253563,-5.074844230350887,39.91926740812116,84.05376766227715,-31.014105810491674,99.9280155548845,117.15843904894078,-47.583556299960435,211.44982875309933,133.9667573691548,-24.24530548509901,194.158806568349,117.56206268849685,27.853351950287177,293.9693586179916,136.58892520873474
12,0.048,1,0,21.23708769694614,-6.637681330908446,56.49920832582784,54.54391996176645,-1.6394980132149755,149.570654909079,17.642410406101938,51.65707047075233,218.4940702613468,-36.568036403001514,135.22401467419735,220.54625109180648,-108.68322523199345,324.67240526002195,137.00172175379726,-22.958098997114604
13,0.052,1,0,19.433696672626716,-5.635360285794093,67.9419044606162,24.626475765936725,17.814281983189908,126.30618308144085,6.1524755523977035,123.4836233745925,107.77320599877116,-6.996763843027239,281.9204450052698,-27.520497588990395,149.90091124459326,172.6770000324814,24.61469350566611,507.53519780729056
14,0.056,1,0,18.33090593557022,-5.679926877547391,65.75526811117629,5.737623001061422,63.561860726425024,95.31752521402255,2.825018525577363,153.7052655778382,-41.19008821102861,176.66278735256088,125.20765929126338,-25.045207768445664,224.2440640138898,19.811737404165854,251.52356591759352,123.01222153939575
15,0.06,1,0,16.900078910095758,-2.8260226786017775,69.03011732848177,-4.393743444779965,91.07648874037199,32.806909313751135,60.63417055135711,149.59417058089895,4.57950121101608,278.3537068648794,-104.06706461275235,312.54899350925643,57.17220106557592,114.3029483671993,290.9137277157394,-35.167638875206194
16,0.064,1,0,15.36003328470084,-0.09153510991516,69.42255527932184,-8.214712929244108,117.55840440635154,-31.91894742571564,150.09227171306253,32.133960851262245,112.09420439277886,130.1019828738659,12.007295841930869,225.42000723502946,-65.2014594427018,206.21727835777835,-90.31179142231144,625.0979605938642
17,0.068,1,0,13.6060443648924,7.046812017174872,55.905356229551785,-10.318798834351611,126.73528867282172,-42.230644560356254,133.96149046724832,-71.34362227906018,212.1031971236722,-68.64171259805633,282.4614006306276,36.87930569815789,263.1619922478161,223.50867069215224,293.65121478245777,372.2863900271124
18,0.072,1,0,11.808631975533057,14.116134267383972,41.28313320116123,23.136927430878554,79.38416283241182,12.528892019220564,115.57453047274839,9.120482367606073,138.83228300302605,29.784317711272763,198.00390833844227,15.201285378300156,200.53822248548875,-195.81401906415323,745.606271753172,-46.84348157671616
19,0.076,1,0,9.999999999999599,21.482558550604743,26.37054040091492,49.09037134647194,32.497876553577626,78.679070750702,42.20605126036715,113.48329917390322,39.44647928864985,175.4376839829377,21.49035249516544,222.25081742956775,78.45201252808232,625.5491331518695,37.904098728447394,262.1793208068812
20,0.08,1,0,8.275340997489344,27.86503800370285,8.362228289083578,76.12848518646462,7.675629878668842,120.32415870971417,-38.25178023789033,193.3141789013178,0.38499115189378585,177.9327282707912,4.5858972039856525,446.0156976875305,-28.590760313766566,346.2765242839658,87.55774803061817,280.61075968448534
21,0.084,1,0,6.593142602516478,34.112758003071846,-1.1665444926110702,96.1901522256714,-17.406778951783778,145.9510152226018,-23.058036728509165,165.11174931190314,44.21517125445611,123.2837572571611,119.19264317195882,137.91151227681164,518.3740250387759,-83.45282431892736,491.1605028149558,76.61210226443282
22,0.088,1,0,4.562432894059639,41.783272033030165,-8.12222385827021,92.67046775670971,0.4806110306030291,117.79755811275741,56.839950139640024,60.438163335686816,177.9040815168712,-58.6497421976849,561.7873208663215,-130.8085130804514,289.1048130420787,93.74934168431369,124.45791265197761,354.5977870602072
23,0.092,1,0,3.506716298850133,44.05298405981573,-10.001046659713126,87.63003468701724,27.005219479994878,51.411281540804154,129.19699617214184,-41.1975706043408,187.7210290324913,-44.180638882398426,329.23034535180835,192.83901144581978,39.17493980011248,386.1518127764714,25.493700087326175,293.5381893293563
24,0.096,1,0,1.6691449284910203,49.333565633519996,-13.462848003632807,67.92692777268576,63.302712231210855,-5.953497439374388,165.6171232770986,4.487336687896544,122.63441820495,154.70321470075527,-110.51571777416513,189.12888082255523,-22.278791750136236,135.22947332807786,292.68553646449044,-150.8980373260552
25,0.1,1,0,0.31502637544930856,48.751767787538654,0.7088697621496998,38.568993046511345,101.6529355248621,-48.11152627463612,132.33283385796142,90.82447437680705,-35.328038693633914,417.72168197207026,3.7631665631260915,98.29700701944743,345.80763891379996,69.93020727627297,216.86373740268095,207.37188633666517
26,0.104,1,0,-0.8375357749868702,46.72890673091294,14.86490357133975,8.317061420370617,106.63641620398658,-8.238856893164481,56.56801223281068,195.0147274056575,-54.862090857772984,243.4296506552676,225.0399976216807,-129.28959244782618,182.4662741974363,210.41215581263612,36.53784403494841,455.7561258336522
27,0.108,1,0,-1.6947780645419623,44.50255253612236,28.884687234517408,-0.3166651638823197,104.12833508362819,59.91109817867464,-39.16054004795997,207.44510700851774,202.8555236191459,-113.35849665960188,298.0166627514369,132.73780877155227,-2.0061881661424366,308.08550518553943,172.09807068861656,49.78097108279866
28,0.112,1,0,-3.083616004941323,39.40066350517121,43.461528694773534,-25.052994261136732,81.02791575489871,109.1489712540109,-4.396657767961031,82.54451442190245,402.1966066432526,2.0310290875283243,32.70852461803362,231.7939647901906,16.25487803123481,25.762786651682106,304.6632493221967,159.10351120302673
29,0.116,1,0,-3.4743871247390548,34.36112999919734,59.06258128163119,-13.386076387639946,38.839928373835235,151.0682339882208,33.098824721016534,9.032848892663239,370.3366526272742,151.49030750809476,-36.18801802182179,137.9379161681341,315.106932241628,-41.96928076012239,-36.517998729524294,485.31967695587076
30,0.12,1,0,-3.6776179538169202,28.37665245487754,72.98098048652462,10.042587162175135,3.174844204425618,130.61063131299096,108.10725312743925,-45.44975606913246,57.83786817851618,257.21170504875204,109.5200022895081,45.44565318621554,178.02175215758825,307.3530408565339,84.84819815943689,76.00960946103501
31,0.124,1,0,-4.3891487227676595,22.173473079553894,66.34886896727417,35.138628134594164,-7.912167982705391,72.20898994164634,158.35632640826776,129.17481837178974,-65.6019910344952,124.75771710322454,193.86575362711244,75.44130652810892,-99.05837672168647,209.27497954481157,272.3131213838496,227.65819142594478
32,0.128,1,0,-4.597572263681556,15.49005398318975,73.58294006380093,61.33659031389787,-11.66558849227254,9.277740955858391,162.4987588145807,359.1608076099068,41.027704154213495,-6.101908134653755,141.03784712416456,255.54158443812526,108.19048896998031,58.95332921575013,302.614958241356,956.2816619254179
33,0.132,1,0,-4.528153916551368,8.75100527522713,65.74100166836402,80.66434335084972,21.44668689717108,-38.26063427532708,66.1934572104739,400.21297975483697,164.42779872627136,-29.366071056871874,24.596713733416408,162.53519781527788,200.2666750891427,189.212976892796,-193.87998463413726,84.05772208871288
34,0.136,1,0,-3.0141587543861785,3.3409544761469157,48.83406846678339,84.69295940886556,65.03281534566995,-1.6076435457575116,-34.565358572934315,102.0115670746117,203.80897285331594,170.503603529074,-44.3046398290104,-41.82859254800891,137.78934751563813,570.4132570689465,639.8534024976577,101.58773985235896
35,0.14,1,0,-3.1954541186270173,-4.613282873040827,35.54198841903838,102.67108824331947,93.27486440415336,34.978631972273234,-58.79260074236228,-4.460381112373483,119.51166333300108,218.7923708543554,195.84050954517423,21.328239438082704,-164.32289956163652,114.31785058217295,269.4168105540467,445.1443246390983
36,0.144,1,0,-1.992563756241097,-6.8322406656817485,20.698837500888207,81.12745368678696,104.07834792278297,111.69374674358656,61.72956348038428,-16.013970151888927,-14.403875827777185,122.615108133923,228.01221132713167,230.44532421662944,156.18851913743248,-60.636440286761456,-172.52532106153882,78.13444508092172
37,0.148,1,0,-0.8519665775995104,-9.412759814568403,9.004364164134746,51.55663137803308,106.00554742125328,121.27318110666755,237.2263366029921,34.06848949898052,-57.226008228974564,-31.448348784733184,67.28159030279784,264.9429076471848,232.69749626720994,255.45201146691522,154.41856287515006,51.90744616477197
38,0.152,1,0,0.6175706548555162,-10.508433806396905,-0.7766052624118522,22.160054528997627,83.14321327997229,114.97850545625424,141.92407935099305,159.47700483523948,78.65213092302578,-0.8203604365895103,-117.63951177424752,-84.11970556242798,181.52963839922575,286.6669381568505,322.9427185434427,256.1899028691095
39,0.156,1,0,1.5510156474525658,-4.176216025713302,-12.498020171875488,-5.503422995833084,33.44785651108421,99.51346694459218,123.69325758601607,195.57966875926743,231.56675669894784,176.31343035037085,83.70798743903381,31.976916855958635,-47.8823358493961,-166.45715592753317,-2.6674940487848744,130.1527228918793
40,0.16,1,0,3.1816443795844993,-5.367842075208728,-15.849932112609892,-3.440143990706943,4.165619043177401,34.799075961978524,77.51759516165015,149.98563445081183,173.1012223565754,306.23725329366516,264.6530830322904,529.6941106311269,405.18519558105106,129.87072309573924,104.45442743833323,92.34495866208603
41,0.164,1,0,4.6296459984337694,2.797249276354602,-10.363402344736762,-9.512539997709446,-31.46423786385239,2.0691301325841422,-14.236411613227858,21.448209272886793,63.561585362873814,135.71176358304854,149.21184460965114,432.2160196363451,208.76002530048498,357.6893570214221,474.82655394391816,345.6885318680688
42,0.168,1,0,6.627604001901986,7.869132714241594,4.120819814931949,5.425228071309576,-5.975987497213808,1.5231488394061259,-47.08035007993833,-21.62609334151975,-56.29740318882256,-55.25290393307435,-71.43239924465186,-27.59461613052474,98.40150108297591,64.7034932884181,127.4880072183305,187.1841076002823
43,0.172,1,0,8.1513078058912,13.83267248290744,16.784924159068822,17.006874226894155,27.162889713926898,11.126093425519954,17.157380710206375,10.661437607688725,35.22321834137431,26.20612293659383,-72.36943426766015,35.203455168489825,-107.7322965910565,0.8910063583270471,78.67359847520827,6.973672684620624
44,0.176,1,0,10.000000000000439,21.48326407062844,34.71917792390321,47.679548681280764,64.99220455089566,79.25728829540424,106.79336719748298,105.54415597443025,129.50452207964312,173.79897213128123,418.3684257475496,156.68203916725696,226.76567839609356,285.37512865513213,232.0355296008575,328.7866120559846
45,0.18,1,0,11.734180633599234,28.9851661225128,48.723430767727734,67.6002047753811,106.89802446122748,128.78917399646872,184.7065766199663,208.34142618662165,259.9175692251469,171.5133176354169,578.4408268881099,357.7812981497109,248.7714941353328,225.35229302555499,334.5205316491054,568.2520380004403
46,0.184,1,0,13.446912953740492,35.4126828912287,64.25008302515758,87.32786062939222,112.35708418344936,155.84926136370132,178.45774417891823,156.31835690475205,154.72406773113948,136.10937136672675,180.97405522732416,15.642688498832866,-53.90482350824888,-115.96627122220573,-98.78324495623212,-81.94672769786825
47,0.188,1,0,15.41645857970283,41.8945335442817,73.44768995369266,97.77098560188884,113.9146517897273,107.54080163917908,89.96142414883255,54.2347163563754,17.07798888985303,6.225110585911679,-86.86945484498281,-107.41709767088184,43.56783088902547,63.86837522152827,154.38746635156085,534.843859768706
48,0.192,1,0,16.964207322696197,47.067450669609144,69.21687626292271,93.15612242853824,77.93810750174327,47.31669498495072,8.315894039770775,-37.832169672708716,-60.798760568260235,19.569514881182613,74.4526441299664,197.04321059096213,256.31310352447963,312.7505551334293,661.2209430945552,206.3575899469464
49,0.196,1,0,18.262601047333305,47.601955146348956,64.14734701823475,67.74244080028312,37.79592863404585,-20.97948890758306,-40.63257068518993,-16.89404490477763,50.94111684437958,164.5826105979774,231.86736063358654,339.5812829036572,173.64005901091195,134.09393875014734,68.18290448362114,-134.75422599259565
50,0.2,1,0,20.059434703575498,46.59301194700929,58.53653046174249,38.81339122599724,5.918330633556408,-30.009576882736113,-2.0174203791923446,86.98213636783312,188.71004351293215,406.371266734697,174.47660501722294,94.23077065632815,-28.79417778261788,-102.26401229483398,25.069429077680752,195.4856029718906
51,0.204,1,0,20.546320347348498,44.7471958480032,46.02328882101791,7.42280168272471,-30.24987619600492,-14.508193596651196,83.71475933132783,206.69160827104602,175.53449879731494,260.7958038612225,-20.89784839994951,-60.778711435841444,87.00667537721237,470.4120511981576,372.3635722803966,344.50481903610637
52,0.208,1,0,22.237544314570954,45.22831844093221,31.212874252004355,-14.022997459931553,-26.21159288931358,59.89591237059476,166.25728957800817,149.48658738018577,87.76881128414342,-18.58276668586589,-4.256336754528775,124.2291867402928,228.00720080809458,710.9824684974103,144.1153124995971,-57.04591553555355
53,0.212,1,0,22.72871871434444,41.2569514679073,16.690919288905643,-14.779333348635582,13.534620304533547,118.70359764812979,172.9574626109996,82.181629106828,-57.14595700942195,29.621233521639226,191.67495693864618,301.35411296524103,246.3580956687493,-40.471862496717904,21.020454432243554,158.9926763237216
54,0.216,1,0,23.169198104567954,35.54066119891921,-0.1537727936141735,-8.631898875816859,64.9921532345279,162.34917946201477,91.1070181386406,-0.9844008378976383,-19.955274591508527,146.99996660273828,325.27883663567525,134.14602017270005,16.049821578745096,-47.566116963118645,307.67528297042526,292.10851359844224
55,0.22,1,0,23.982011860416243,29.752907620213463,-12.45900781984568,5.113369055492825,110.34120751103465,116.55553776213591,14.496446823428634,2.92550298387188,239.00862470542765,283.63674750622573,110.53897468197853,39.704688613936455,94.58005896749727,325.98534201296616,222.87218328581812,-72.1993669974189
56,0.224,1,0,24.815308527691748,22.163594727256843,-9.57802147770029,33.70822244467292,124.32284693995247,72.15928561980803,-35.31206509350342,63.284936317192034,442.9517504347491,136.8581331492261,7.448181454886694,69.49759338913836,261.14520669002,189.66852499386826,-2.8883447263938535,111.60679551402959
57,0.228,1,0,24.195618235512647,15.405054973594966,-6.252110737950247,65.31607744556591,110.98765601709496,-3.253601945147004,17.873153644087935,139.1242095569552,164.40295079342206,6.6095212884874,36.36229299588406,299.5721062998736,283.10834117722214,-87.08320634952699,160.64322375198222,352.72500308393626
58,0.232,1,0,23.54221218837732,8.313260084809269,-1.2845098520342582,91.99056531534342,79.15409623674088,-13.617469252431604,74.36158627353082,176.95177504163573,49.27465802936178,38.09907300801582,302.4336362043716,162.93926098811127,-132.58208839202655,150.63398915423176,455.75872636693794,29.491280724316795
59,0.236,1,0,23.38204395959512,0.9879636898338866,5.560419578742984,88.14088726637364,36.19027378312758,-6.522972074817375,140.50266637707136,107.38608176298827,-10.283345117239051,157.387909171032,168.8163928062267,-122.6030583506415,267.9181092230772,450.2714946141025,-43.24153871638708,87.97426423761294
60,0.24,1,0,22.42780827798843,-0.8218131381124216,24.544533344559,92.78576527155533,1.2230767996467122,43.803078359455085,142.54320952404015,-12.284534025977393,57.18788633473768,229.77633874151567,48.40148040036478,60.19307723243506,281.68408192696165,46.461672683896225,70.59824237007295,638.74086325931
61,0.244,1,0,21.6125525137763,-6.481695463798069,38.47654906544419,81.03136620873106,-26.717293371567592,105.87379642484218,120.73176812697278,-59.979327678826394,218.58759276197316,135.49505458006522,2.2566260079808274,472.90416984584806,115.27069529710356,57.54743034625082,239.53879687979529,179.20002822830008
62,0.248,1,0,20.935878412608098,-6.524263388020781,52.581690285472654,54.40601723261063,-16.492916875773375,134.84466626655262,19.24047072135287,80.90987150794854,242.37011341738497,-45.989055882741354,149.02485907930065,499.13961729330293,-161.09456595378157,366.40712441071685,138.4535945076857,18.461227936064006
63,0.252,1,0,19.808378065538303,-6.944122095031666,66.5238296421267,22.180037186448356,23.981882488620887,131.24393286084842,-56.231225198496205,282.12739319608846,99.40713850690102,-32.45099342331886,250.620511894312,-8.77339463023148,182.26109911522417,270.7351818966156,13.580780261924787,206.29894031705214
64,0.256,1,0,18.168723887742733,-6.197498557493731,76.73024406927752,-1.8138468358588469,60.70756902923682,84.59508894894907,7.754866538029931,395.59070379249846,19.35524243265965,144.39527542892793,119.19992792734496,-9.22362526196602,385.7901965868242,82.47483906947036,537.5992904915298,151.486370306592
65,0.26,1,0,16.69372328224535,-2.8806846504131123,74.27536912194259,-14.85094908066337,109.96969819483701,20.8172205493235,62.87411291541155,115.31311618617406,12.765775745510325,309.6278050402865,-83.12556005644294,273.04713110717444,51.335577842369716,120.72778618209603,414.7201293888062,-64.62476805737398
66,0.264,1,0,15.212191724053952,1.0639633903759886,63.45709563872737,-24.727351915754525,108.32735380237028,-20.27781346753386,165.32621581814715,45.21089730778778,106.57066067701342,132.2128422142594,94.55492749246218,271.70855848585154,18.82052674681381,223.38807101074718,-45.72861954898917,421.57879310672047
67,0.268,1,0,13.360966854740527,6.808146713081328,52.04422592834533,-3.8781446958452577,103.19932785156638,-18.752750303970828,181.53336595544835,-62.3257089273053,226.90590935040393,-43.69011764293671,468.06083727473555,-12.717215256102406,219.58190443749828,85.30173062769744,169.46943672367433,172.51348813235643
68,0.272,1,0,11.801787636284924,14.582365340953373,40.43498446538656,22.794256269155504,81.45781719410972,24.51818039505239,123.46889593586343,37.85405778644891,141.34538598953696,-18.291618243209967,451.39295294600635,-14.622572742138061,315.21806295211627,-124.79317083361957,252.0496907932328,4.72942061372666
69,0.276,1,0,9.999999999999542,21.41025537364712,26.128135945458254,48.408654162798314,38.17876500144919,83.68914959870543,40.11470817606589,134.0883958736157,28.08035780345498,131.62290950896184,1.4324963234860064,216.67331492612283,81.11508301906255,492.69992950838616,-43.8873836136959,281.13770146405574
70,0.28,1,0,8.171830925514858,28.057708829651254,8.589436606649294,77.00016486704236,7.567986551296023,112.38008233629758,-10.562199806136107,225.59314252393406,-84.16053249057134,173.99947232841788,-29.03221132504794,189.29176382800742,-39.16224094172796,578.0380078889425,18.829386729562856,180.00389364335703
71,0.284,1,0,6.416448480218909,34.36804785791786,1.8165949743540182,85.04070903022398,-14.336855858597517,151.97401587625188,-32.16666463933379,175.76133944917888,18.651995235355173,119.85660323663046,120.29843774964198,11.435003568866634,246.0439904861422,-14.464170215805183,245.5304133230793,95.65589818217941
72,0.288,1,0,4.999836516231271,39.4693175892269,-13.938095600558363,103.76194793121186,-4.6641215097071935,117.23786419276824,98.94237498174303,48.55605919088996,200.13841792353998,8.544924059080742,256.7402123823347,-48.32306973968133,287.2363148440509,112.09026285112165,135.79199060275937,299.5982275478227
73,0.292,1,0,2.8502489375276108,44.68163061845705,-12.14546968540111,78.89640038719597,18.567658829035025,48.9758936831537,144.8879423749699,-44.23738205455814,191.44546446442249,-43.292434253281414,152.30736862704623,164.6566415458677,6.781134621465512,429.6055470577316,-38.47656182952315,327.0090527202432
74,0.296,1,0,1.8241687654358145,47.673983410754424,-5.455843318760344,64.09031446999256,62.52793897806115,-17.370412718410805,183.03340880044448,0.7241495382570093,124.98179142348884,169.31386818646644,-106.16290900329187,295.7010033584712,71.82579539941335,137.9197355805992,230.8646958003119,113.13591017690695
75,0.3,1,0,-0.0386740307075879,46.00682222479285,-0.7129242077255711,38.370870610149716,95.81876025349774,-35.356550938634044,123.4082017722475,92.64462768067247,14.394024849404829,424.8285348178069,43.939664235093474,103.67043185153676,252.51478466312636,-40.19245790832028,237.38608511514002,493.13144027250536
76,0.304,1,0,-1.4258137354223042,46.832408326185984,15.709868068976277,6.578093862495599,113.86543224620686,6.572124284030174,50.089838401965935,167.90328344928088,17.67297236096627,264.56142028879856,164.22575313464586,-20.769883600188848,464.775556952928,192.9913071038998,-77.15538365952838,773.1725166424865
77,0.308,1,0,-2.3752619228486616,45.39996172208615,28.9280393689324,1.1510968430314605,126.12992164203483,59.89327221093603,7.51328218090709,204.7344927900631,93.01102405652212,-30.804371934796254,296.1080312795239,123.80691653090126,-62.54591438442063,226.1073932100716,154.24360380102573,-182.30949162788784
78,0.312,1,0,-3.029230894675301,39.55109443737946,46.557932948958545,-10.345465417337863,73.92800428765646,125.00936113852916,-26.25474951745582,83.7000573208983,165.05411000958892,0.6315410274271045,29.79230795448362,229.99059695360967,96.2044263820392,-51.20955957716322,210.388923914736,159.5529092768392
79,0.316,1,0,-2.9703583063621313,34.486629075786524,54.3599293536432,-3.085200847861337,38.14900101005671,129.66692273357748,40.878976064209546,8.55201713276496,177.31818949019427,170.8462860815016,-84.86763222471893,135.57943257537823,280.9913470228679,75.43963065322772,27.495205026650908,474.494710031026
80,0.32,1,0,-3.9117353679026206,29.42327880935852,64.14564131269022,5.58751644161589,-9.126887779209447,117.35595834403469,111.34424071928558,-41.30069861023469,66.31062676792837,209.0583013791691,109.41899519302667,-153.23179430110147,197.86599008944387,249.23603126324178,65.97981508568469,-36.81876479344626
81,0.324,1,0,-4.692434610452269,22.31854587171606,72.01859185542578,33.25630009372556,-9.226847940140466,68.74818976215909,173.0699137175408,68.93811364467098,-114.53343391572028,133.55456478590463,342.3480102747582,177.2881721934419,-106.29246375999833,161.58061551683113,772.5531732803851,93.07865507873939
82,0.328,1,0,-4.598152636669253,14.992922663211754,70.97902536522648,58.410192170737275,-5.6111658109386156,17.05822103884583,141.9463034795617,185.128514886307,41.76483954795964,22.09839668085121,168.21055324327946,650.7258419654095,106.24040397887539,-152.05264882804317,285.78174469372595,406.5148753910174
83,0.332,1,0,-3.982046048786657,7.820761132841152,59.649319080601124,91.31536366984943,22.89961335324588,-33.11903692121682,64.63898302424828,177.5930449735516,313.2508041563874,-39.03340122099968,23.746137993300607,193.6133620131683,268.9161297938716,158.97422780921823,-36.839756083800296,13.253701466595942
84,0.336,1,0,-3.381718950463597,1.3363507048424736,48.22384108343953,86.60229574520127,66.76608842975071,-32.75781496852724,-23.253109033852255,120.1174450439348,253.45771749637146,136.41886885729252,-13.785949472033039,-110.4571010572455,136.2202490665138,367.664113231506,388.258351379073,-30.7658301344182
85,0.34,1,0,-3.17241410942966,-1.3925397360353173,35.87558407021985,102.02913134820984,97.46460220461702,33.96117854440865,-15.209129900087063,3.3293175739725314,143.34281223631763,301.336596252151,246.22315282742042,59.9256361482218,-10.00556602247977,96.83694098122834,308.8086407223757,345.0077420997052
86,0.344,1,0,-1.8041063540121591,-6.985388256355158,21.45678556619641,78.08238429186571,119.62842846222229,93.73944499972507,40.75768601063059,-34.23230011169039,29.78751526377267,118.63093473002624,197.5988701607274,281.43023270833794,138.47021605494626,-123.85524691223583,78.07108447316419,94.43214130549681
87,0.348,1,0,-1.3661936538546637,-9.328551393168151,6.197961864169219,52.34520377891735,117.54141075804476,131.15079775799109,115.86897925834381,34.72938315464958,-12.866360094233698,36.41627546084513,79.20694261037292,257.068199582027,208.69677270813548,596.449709063939,173.7160923863908,119.74427823229638
88,0.352,1,0,0.4744772364804213,-5.36702034431184,-7.547427598925857,27.09275144153053,76.60436531528907,147.9593686549271,176.2559381142307,132.69838946505894,78.63320056051658,-20.216802804152422,-153.10947589841376,-85.74131065906258,66.39492875589656,274.56811069132175,272.6552285577443,248.55784517601285
89,0.356,1,0,1.347453147452308,-5.944191766587714,-10.538743442321355,4.290262002933346,35.75740734133464,91.1910747311652,128.91868932248687,167.7469173272579,190.92020650080173,179.82628523656587,175.48259737659382,-50.68195998642719,34.58159216809442,-40.52029693856494,-78.12310776935243,144.58071940629387
90,0.36,1,0,3.5036881746044077,-4.013376256047252,-9.194035776065313,-5.055172677231752,-2.1698019519444642,30.270334450711747,76.94681499928552,130.62227736311198,231.10186868470154,173.74134606111056,555.9151949683837,275.96861144249635,177.49734993792455,124.4041045978606,62.874849822365086,-33.29308734009226
91,0.364,1,0,4.980940843297216,3.2832278286615697,-3.601962032910322,-13.726513520791677,-21.509614032195557,-24.272197737222413,-12.22811815666958,35.1827643992913,71.55431591511996,129.3833924400869,146.61387209381644,235.90964516214893,291.5136448525572,216.90118212052755,390.27609493788634,861.2958269484363
92,0.368,1,0,6.335016841239616,7.618462381550419,4.916657481730063,0.8309299641984182,-24.63411748671402,-8.013986567641695,-44.46838996368598,0.029252410790491012,19.921524116380724,-71.24695491738524,-47.89548683000672,50.079451770389795,56.07556396565485,93.80537945096438,133.54601513690372,351.83329556733406
93,0.372,1,0,8.205817452504393,13.84265347444096,17.63764431809487,21.653592247722354,25.726746969448026,8.13536591363728,1.7160107884909905,30.974193251758575,-6.891232879168939,-18.83747844893182,0.7574133671718783,-39.47613960347209,27.084730684438895,-1.1038932952533855,-27.370614435299302,-8.258627626910084
94,0.376,1,0,10.000000000000536,21.395917739435244,34.363004581566265,48.68413819285647,62.35965203816087,84.92962209168803,106.8221273038256,252.90775856110957,139.82928370950634,181.72926075134959,178.29720483327708,210.63288456547045,255.03641789878836,318.60480185953395,226.011289464428,266.91249331638403
95,0.38,1,0,11.791978781488407,28.591067865403552,49.053190804846565,67.56636950716901,104.12602800296844,135.25499465311668,164.26427404550407,366.91876942048816,179.8735957044976,278.55498560630235,257.8837326805848,240.71964170731408,595.1756456058563,330.8885844569222,180.48761468134805,266.9998034523577
96,0.384,1,0,13.603146688403069,35.25609524946189,58.553696809551916,99.63980313157697,119.53038259843122,160.61277132966308,171.61649887704243,176.75354084585632,132.00915156223442,134.94277786895515,100.36188660715882,39.79352873927314,-30.09813951331114,-104.75241003969242,24.776452026330333,-191.25398829467343
97,0.388,1,0,15.315313759885878,38.43250689019359,66.8074092347748,106.69443975660427,122.53634687215127,97.34449491451824,83.61168768750531,59.76541075235737,-6.882832936183405,-69.44859394781068,16.250254845928083,-56.06867063295479,63.163589926062485,76.54385834531737,307.4982282740344,306.0674203586784
98,0.392,1,0,17.112761117216714,46.957610469344246,66.5785286366586,78.6174448190761,79.28521494298695,52.368917924634104,1.782893502505189,5.460755436435505,-3.9684503415524546,-34.96412575298871,73.4630765937184,196.62316380261933,315.761243323332,422.52444515723005,760.285009378598,393.8568636167265
99,0.396,1,0,17.9527590736044,49.474554985547485,66.3887100289714,62.9966409763144,32.68307855505206,-1.9311464356592865,1.419505791849545,12.856119538073003,71.65382127457993,160.58043983041014,179.49465215806669,246.32029625004924,284.2130908571602,134.01776200017844,40.56885047151326,-138.8203866049979
100,0.4,1,0,20.024766940053226,46.63863708092442,59.73958027714987,38.63673060032117,-14.496458791111252,-31.819486368298584,8.103834683999175,86.85201789215712,226.33865046116736,560.3003324235891,186.99154684599216,178.29373406502756,45.1160379374422,-129.30190470855808,112.8619840520189,239.53184555646217
101,0.404,1,0,21.271569048994948,47.155178978206784,45.877807615032154,5.896323811280006,-15.929770328279744,2.6903815802676547,88.97432828791064,164.39100393953265,172.2898890062022,280.98419234089107,-51.645735817927005,-157.8751507100731,56.0886844188757,227.73739763702093,270.8186220685025,413.11990094813837
102,0.408,1,0,22.475329394059543,45.999526914302606,31.05984879150274,-14.004650137897308,-26.21025874229582,59.89405899178966,171.69213618852245,165.43658077075088,87.39422920711708,-68.57123314735486,-0.28974790077860746,233.8590148651807,223.528505398831,658.3136181521395,142.30796052391105,-5.878244149871392
103,0.412,1,0,22.85355444564236,39.786076791852004,13.608948447510205,-23.698253761951733,15.965145089967045,124.82864396217148,191.26176319474862,81.92128974305926,-62.860871636983326,45.09468056241454,174.31325002335905,380.9663424054649,168.07611747755985,-60.80397520788239,-97.71817373671146,159.01313080347836
104,0.416,1,0,23.060646822765904,34.40101662029099,-2.0383878466599725,-19.55560461989272,63.98377506465833,132.61269625705444,112.35556299809488,7.784550491766878,31.4764657691732,150.13929078150824,214.30851841773347,140.43657183029003,6.02078984981155,72.49814081175836,277.89615768069643,310.95769065842524
105,0.42,1,0,23.958690975657902,29.692032377093653,-13.56593314852065,3.6740702643054135,103.60473477906409,128.08485368412482,52.359013424904646,8.3718468425147,136.2952075621302,267.28323118108045,110.22321808933113,-65.58627585006076,109.29694617761584,249.7107555754555,218.84973259973464,-141.63300325587454
106,0.424,1,0,24.115256621443294,22.10741106157114,-13.786087014317154,33.356653692186434,118.11565602971191,70.30873187491869,-35.46099874284164,66.34543032435343,161.3112955092804,133.24430291089777,-56.75976811986965,83.30762568629163,374.73920556416084,209.81551473713904,-151.06387327176623,152.5354550218616
107,0.428,1,0,24.534785325984203,15.319931614546089,-14.679057143750235,58.8896755318699,105.16581928017531,19.86041074249311,-30.022213649549172,167.58326919906287,188.57106335010772,-51.98128311049075,37.55313177158811,224.81037523765508,161.14870790886204,-42.22938537206147,154.87942472270544,733.8569066562413
108,0.432,1,0,24.006085545101584,8.98316273491705,-4.027938042971236,83.04893522039349,81.12121622394666,-43.97831474587291,74.58972947569033,184.80852063330062,35.6216760003702,46.541169913891274,247.18711552647804,185.63603449964046,-102.44475317643148,149.98944500363345,452.40801082837874,60.60866375654042
109,0.436,1,0,23.961769825547208,2.2778407845776663,5.635355272568315,94.72173859540086,33.2579498834844,-17.53237338698399,150.20026932818763,105.92769624920142,-24.085760377460076,135.27646179262592,191.38665084072295,-45.94521155192035,122.76798966769762,286.74162264472807,-70.3762227651327,36.477375553122684
110,0.44,1,0,22.996895248540767,-4.711490140189799,23.14401391285825,98.95047895325547,-9.658376437623112,38.30605460177196,134.89578234271238,23.565993760161206,101.02952482891263,170.53376541528442,30.521250062677755,9.09890312496617,330.98497418666034,110.07282902104663,39.47848301537529,209.5017776632764
111,0.444,1,0,21.69050365586692,-6.539830454211799,38.74990763509507,76.81648934648828,-8.449524569682971,108.7331258951964,105.95828039860076,-3.0051179819630676,164.73093515871182,127.21031362515885,-115.22322907467583,328.57184250340083,102.78996378271827,3.1476982363618333,472.3575273502726,115.62573900838274
112,0.448,1,0,21.360715656347676,-10.261108745317511,55.54936413231305,52.95275080517321,-12.353776627403697,125.70170299960418,29.692973175167673,28.617036057585317,184.52606461121388,-72.00661696496425,319.3809505707891,188.33378094376735,-164.68224802479392,284.32462864154536,244.46369303609063,-36.845931056032555
113,0.452,1,0,19.361503883896752,-6.319811318095535,70.23638586898247,22.537183296948474,15.960421931168874,145.77680067075397,-45.4792952439511,133.5790328252317,98.46024753492462,31.184901057481806,248.93012053613924,8.056611136745332,160.85605451752545,274.7724351169958,9.73977742094337,527.359092108322
114,0.456,1,0,18.559406449860166,-8.036930053153565,68.75282500509763,-0.3455286516344458,66.57091364140614,90.07039619133525,10.485477220830909,181.3965872285844,7.381377765553452,172.8217350130834,130.00623206187873,16.985720052976504,744.669594391772,-73.64821015793316,467.2395572269311,144.19858066763044
115,0.46,1,0,17.10655512186595,-3.474048761427788,66.52871637837873,-18.561605108798204,110.03242625500474,34.506390262990095,60.700373315951374,126.46504383760417,10.117011061848714,289.32177605599804,4.469054526523308,189.41660389250166,104.87500347687251,107.29646898568959,202.61880186542064,-147.63467968639543
116,0.464,1,0,14.972679063209771,0.06696315396723662,70.77626245012115,-25.106530550492906,108.25879200388135,-18.500407422253033,163.95899815739955,28.8012341210258,103.0663166131903,128.25948427774918,66.28333241964168,287.1903369544675,-132.9534877933084,233.49765782834595,3.0561153623401935,468.9819799491358
117,0.468,1,0,13.433080198806357,6.728967053934312,55.33261196709307,-8.726941233701595,109.69427647587196,2.0751040670689065,153.87327207836262,-25.663939918683326,204.20837049556894,-51.055890232157196,262.71553475938487,21.286773098761927,240.05279421145426,54.57514480913534,168.5602173670198,208.0557440410995
118,0.472,1,0,11.733442646280466,13.990563543077997,41.83752681242022,17.503067777222515,75.52219146330785,9.726436452821922,124.33604182195035,28.850640787013113,184.61620832469322,40.72674216695688,168.62075922877645,-91.69538732033075,270.8929092020691,-40.22483901786006,489.75787047548806,-160.61591260218438
119,0.476,1,0,9.999999999999469,21.302081342976802,25.886464430627903,49.14865819701596,38.57036877886128,82.83030167661278,34.17307754840366,130.00844763698655,28.898760005765872,140.1426610771291,54.59717499731525,213.12501363195986,58.99001121191188,530.2954940732012,-2.5913337679301094,315.2704647993497
120,0.48,1,0,8.272257110880755,28.152102118207075,11.542621893778822,71.28442286314838,1.1107446325630193,149.08924650328134,-5.072361990936997,177.48647594771703,13.259731075825655,199.9818123982839,2.2567114553111907,631.9656298263432,-77.56279949609996,558.4463532342274,39.84175972461006,575.2002209354239
121,0.484,1,0,6.626849384325497,34.28680912276403,-5.846097986842203,93.18147223388488,-19.265662890310963,153.8871805462577,-29.228642174235702,189.1536624632006,34.00658690573896,128.5030114582213,127.29322345205463,128.1371345998434,309.0064114262602,54.70172142268876,284.87586701854366,-120.69586680028499
122,0.488,1,0,4.71100048662102,41.225488104601524,-8.036866180985314,93.32088069429217,-2.050926621126223,115.97160193551468,52.22790652951016,49.10287390553283,145.83041055834974,-46.97704183911037,186.55327341422748,-41.39080736250963,177.46027255843154,24.385288800937346,135.32046002349742,523.9568282397963
123,0.492,1,0,2.8480885860873624,46.318124308921526,-17.172078097294623,85.0557749463577,13.664564554937549,51.930886498301035,116.98749020212736,-59.28644199228023,257.2302287518821,22.669196856013272,143.5522385974962,156.85763494356675,-8.676226296492104,410.84378371417876,-177.87232729090988,362.9703659001076
124,0.496,1,0,2.06044329823873,48.1494894820927,-10.520948344283774,66.18067187790939,63.423777469693434,-2.255558727322196,199.95415753682892,15.922558377923226,128.65953386254313,170.40546014582532,-1.99780113118743,212.5933338320703,43.489228770643905,137.30970596798963,300.16689594022125,61.52879973418346
125,0.5,1,0,-0.09956278530463969,50.76263372791924,0.73801456162915,38.72422410249652,113.05846686494264,-32.20908118616809,139.08755384497076,190.25967487987046,19.158562655494677,484.22108267604165,26.95626801656249,102.68591772664317,215.4613065867115,-44.12912149599754,232.85255103144453,209.74033585079388
126,0.504,1,0,-0.4043795890702224,44.87168949397643,12.304509230119166,7.315235656335332,120.23343989539389,11.216213992138165,48.825647746379275,348.7485362167446,-49.29291876522541,267.5169019823171,209.9106107882151,-18.43996141637362,243.0261610932866,182.07262851392454,-149.26897617720357,416.51298726619916
127,0.508,1,0,-1.7875665496347004,47.04520051747462,28.779798112634605,-8.333782888826832,100.96527758759356,59.883858712735524,-27.90026195991551,196.8776798021381,94.12480605499428,-34.92514666961017,216.4783620582112,131.26531413619784,-42.86881747422416,254.79691094387357,165.25742155826046,-139.0751343496346
128,0.512,1,0,-3.2148094309183666,40.19097620803544,45.92311642971793,-24.030705960147202,80.58873376439641,109.05500509478898,-11.084820066160944,82.37734839673118,211.97475012457141,-18.779313834420492,54.537228214057926,380.02223672401874,58.343500332568325,87.21521035843182,645.134545071965,158.95112838906533
129,0.516,1,0,-3.4044857317459396,36.17090462080212,60.35894140075757,-11.043006233631715,34.83748361527752,121.99235086059706,39.01321247647508,2.0252390282476824,175.61303016139345,132.16479904782963,-59.988749756221665,131.76244459563742,396.95626049996645,-4.819433542224942,127.70240417900368,320.3888733866837
130,0.52,1,0,-3.4991340514030043,29.028460158700472,72.35722622075349,4.651502584994304,-7.386897775275166,106.64547677061992,138.22789908066682,-51.356878778524106,40.87140286448769,196.875301146839,109.45118158404378,-78.20943921490553,163.70666522049405,263.57299687309455,145.94173605705197,-95.10654380905646
131,0.524,1,0,-3.827971848216866,21.965473840513216,75.84173157526943,33.97633274381292,-3.0517180711292724,70.74770000433548,167.22819369749078,67.776872879825,-75.12752811949025,116.01914483534715,321.87919988826627,69.58358021178907,14.805949439198358,175.75824284363637,367.00299150268745,73.73146759836872
132,0.528,1,0,-3.6852374594033392,14.709091801760238,71.09569184289136,65.58831380835672,-23.01153634454313,25.095448341982156,146.97753762310316,136.95078670858877,17.532896085103644,-50.87808022404565,324.3677219690029,210.18922599123155,106.85623361902066,62.98090207042711,134.67746939057997,438.15815527508306
133,0.532,1,0,-4.3828985165863035,9.291327424964614,66.72436017412612,85.90757126429048,19.916430320063082,-47.72599462477558,66.46699641710516,219.98975372061713,180.99828660430754,-2.4486918068387666,15.520062600494581,176.26383640541334,578.7331459173956,162.57514544705322,-17.939122812258802,8.151791886054895
134,0.536,1,0,-3.82149526088916,3.7926380332765426,51.805114321216166,90.90494406743818,60.56115502020776,-10.22043495654981,-11.934005597559121,98.76816543786578,263.944430783549,186.8814879484392,-20.867148474512817,-73.2270999681819,277.0723577057069,429.45570325674663,359.08508877262545,-21.975778922259792
135,0.54,1,0,-2.954424459399995,-4.767171644240449,36.9470600536768,103.3403086423647,93.00435965622606,42.90252491549922,-56.363362456514096,21.65704391148404,264.2546053637193,304.0111846139272,161.74779366478316,51.28524017517587,-73.03021021212444,73.40293317024678,251.2950728109577,772.4836623367435
136,0.544,1,0,-2.512115608256938,-8.598211810264733,19.448851563733392,73.73127768902026,116.67822606972076,100.37119841555528,24.517045136667384,-46.276583875152596,25.693221643167277,119.37033994055118,217.44742539896424,262.8714689856251,154.96357985371296,-97.32268407878433,-47.75965081252036,219.23190684591913
137,0.548,1,0,-0.5415362656949068,-5.926183358333038,3.618408687795494,52.37240661110016,119.48452723757194,148.3422163161428,116.97933154919203,25.242372902906354,-7.663995663730731,16.970599788513198,56.8791413732147,188.02215830348487,394.2834964568708,632.6138133455456,157.90311036363215,-0.6282052861961347
138,0.552,1,0,0.5887883298827834,-8.286396759624079,-6.360814401100832,22.679216238827248,83.68476849371531,138.05571504936955,183.4915181861519,154.7536728934063,79.51832677295661,-48.44132200233145,-64.42662021696813,-81.33803931325608,68.14405816069555,502.1552675023896,277.85708809410846,273.1871117067565
139,0.556,1,0,1.5269481139384364,-8.634618224992128,-16.821560658134466,-1.3626117282474866,35.160207712558524,82.1087338258819,143.9732078183307,166.54278567521862,178.9502838788547,189.70863799589216,82.60959981863195,21.97428157317634,-10.62074721425327,-34.740886069398954,47.14457250820361,134.8796045021151
140,0.56,1,0,3.2536980452082966,-1.8153321669984699,-12.012795092922623,-19.148884796709595,9.351377269967855,23.065060469323356,139.59838253531893,156.02360581628494,151.07561841638372,227.56454706643154,298.22903530288727,565.0550659645864,226.17685259189597,111.49632593775897,0.2598872996724424,-62.40174330835118
141,0.564,1,0,4.902569223948674,0.12918139735584688,-3.0349639440657796,-13.921205596453852,-13.33550064288844,2.3141960089089437,8.190028985702924,45.12758317631286,77.75707901039787,130.9345818138902,218.74317407262635,375.2848769537638,323.42885970443115,395.56248344795324,231.82601636206914,488.7714560918936
142,0.568,1,0,6.446922679927895,7.360675580772762,5.313336853510382,-8.761761976973617,-11.903436496393297,-6.8846451061607326,-79.9829778296664,1.3610072873622414,20.182049202393685,-56.408382147662934,35.04427795648333,44.41981886275042,91.7448866412663,110.47442016248016,141.38296930875708,186.90752761202842
143,0.572,1,0,8.245767437330525,13.967261793328543,17.8929230384864,23.565024856227016,26.574391341917334,18.061978675338487,26.5769874479098,33.73862524256942,-32.05460625034388,10.705920531834138,-40.02050736265741,-66.0205375970232,38.38801837639804,-78.52714081861072,-55.386227189901206,108.41246692624884
144,0.576,1,0,10.0000000000006,21.486181749270198,34.759108952941965,47.243535800758046,65.0111070544639,83.41176010578108,90.95421519321799,114.7219256240025,157.98158192914195,156.9255925348041,216.18591503522242,161.45661996201017,173.78571714716333,277.7545285333195,525.0636113723956,386.75596041990514
145,0.58,1,0,11.779266654788803,27.591954459848846,47.37829422052417,75.88003025957784,109.11394387593035,125.70823302307261,177.71643927938197,225.29280993193356,200.4535272716102,249.42488668734842,253.6241367299587,219.27077339492598,341.56021205675796,241.18539774137295,483.38197094571973,237.27352244435957
146,0.584,1,0,13.622590289465382,33.85555949815213,60.77193856631297,86.98839300674257,118.15418659005867,133.2644376545995,187.1481191144921,161.24587313149905,136.5332740448387,112.55693310877551,81.53741548846429,57.35704273618617,-8.18398820608968,84.24372807366001,33.589534259038714,-232.93035817968507
147,0.588,1,0,15.301559527090264,40.43579546368858,73.22702272487734,107.18968434577477,97.96527975304234,112.2072991338082,91.20511740576259,48.13168630318985,-13.125409657789234,6.607855781691114,28.484208201236953,-75.63513536239711,47.20581356882401,77.59262424685545,156.92278571238037,238.63659615567204
148,0.592,1,0,16.54382213963378,45.1370761055916,68.56586191706246,93.19683741359046,73.76343843776517,47.396214478214716,-9.06342868598189,-34.616197760756336,-2.1974384600919876,-43.16736985694942,56.85728719773726,171.42623988627324,320.62662422364474,391.3396849533239,289.3888947876959,201.37790586932687
149,0.596,1,0,17.96667016293015,49.85743354345412,69.78556828865439,67.62695054366681,36.06022792525117,-3.8735886113645814,-33.185627228563845,10.004292478909491,48.731868376461634,141.2595175384354,299.5553286640788,302.1668151359686,311.1914950732388,134.8350709206304,19.340228103594285,-172.01401032370012
150,0.6,1,0,19.456131273156792,50.717295609842004,60.85878033009765,38.541355753619484,-4.918067447991021,-11.739066033769106,25.109766234448664,90.68951391240533,196.64418825583522,521.5250709353095,191.36922843345138,95.15266387332343,9.225801170312465,23.542746189335602,34.99714333654936,420.1769554966724
151,0.604,1,0,20.72720365299186,46.00739109583411,48.577774372638665,14.705133173199116,-12.728036784331671,-11.287931155096686,86.1609264551778,212.92704296862047,179.16208212855489,231.16244147624826,-17.25782743582218,-73.67517106099373,57.71987695423418,235.81749786951173,480.13185694803616,665.334281779082
152,0.608,1,0,22.52972148317982,43.286097250471414,30.967414839428727,-4.014722007677001,-18.48171749554865,59.89189968382501,178.97375995977478,200.71437026793222,86.44933193866895,-103.476915411172,42.291079690524356,124.0109310302603,636.1035583915038,232.21514551254165,128.37655202302895,54.913620054704666
153,0.612,1,0,22.25011373976632,41.44756958009426,16.00288595783094,-18.022066293662412,16.842060400238807,130.9192775329659,158.83069872600396,83.272931402706,-72.96412107013754,-1.9844424088465757,178.3442338725509,258.41453273481807,420.7724213092572,74.31131810073975,63.38138905692766,159.25577163861078
154,0.616,1,0,22.983481850925408,34.25159102853627,2.642755245961009,-4.116133471282289,64.37353748918393,163.83957706873537,110.11370157876158,12.315802444095993,-13.036895140822125,156.6193266195425,477.9523355736833,138.23720576087084,0.7189239387517432,114.88307697920229,380.0143694411332,208.12374386577727
155,0.62,1,0,23.52761102579614,28.804256025628916,-8.58568824234024,2.0555866366196014,110.30954855846008,131.76080952763056,19.374781791084807,-47.71717913577197,137.96898895092127,231.5397494659258,221.94881541528795,-100.6656933466389,83.9019252849935,700.3902278916985,305.59396526240084,-87.98991417873833
156,0.624,1,0,23.60818531661294,22.050290339223956,-11.726812349596507,34.73739777397372,119.49504648124959,73.8636046160114,5.850164607884409,118.32414644923082,167.969070109724,122.51986912929831,-117.32045051885777,88.19311727199994,214.18141116589544,183.49729304071886,-143.79354848153662,138.58722378463244
157,0.628,1,0,23.435411328631634,15.288605625970039,-8.99312800441379,62.78529390031228,114.47076660036082,20.958700677999445,-2.558531837654357,364.38962942209173,170.46798388707842,4.074164229172794,73.23080130476501,319.994176029317,153.6192027504573,35.18653302636227,166.1243834544894,205.849820134915
158,0.632,1,0,23.89588678869894,8.631442538398723,-7.485639073301122,82.96088888347919,81.28943588026023,-17.478563809333096,74.16790291040161,208.84763571728914,9.908250340214849,38.32231851098568,305.6935253056429,193.21090141165695,63.017223016268396,185.4633342878944,460.30774524533075,60.27813251238631
159,0.636,1,0,24.00061514585085,1.5010535382975405,11.122750964762059,91.85393289615473,37.27101760125758,-29.766593654719586,166.1433223767279,106.81894684801351,15.179182166762885,156.68613329421302,176.07236260014264,-14.593042262779136,125.5693726891254,373.7554547035811,-39.768554050714044,-32.273651342044246
160,0.64,1,0,23.103799038663425,-2.342588263611052,24.247915779970846,103.43511650703894,-6.655044321922816,42.07712342729364,186.41252476896761,-2.5096391011413886,44.5081150557216,306.0618373580735,5.667842784482801,117.02894425003208,427.84981387642176,-1.4966503122174402,29.492766577639088,230.13339970518416
161,0.644,1,0,22.26658289959319,-4.778215328984196,39.07359538284052,81.92959964484285,-11.039487035843315,102.79034944467142,128.59690638079468,-16.753070811135785,156.64329233967655,130.2727051008036,42.574899678113,527.5098255382923,105.73249535972707,-1.0853018876773604,622.5982106174718,29.472168588429668
162,0.648,1,0,21.047210513128054,-5.230427523519218,51.081773125324574,54.08399153755273,-26.614598360737318,147.38234786863484,36.26336236394012,29.182524745390594,443.232422271515,-58.8521407982993,159.02429234067347,385.9190142586747,16.17398054053851,365.3540548543518,299.741224293821,21.590896093137673
163,0.652,1,0,20.00251180214174,-5.5960455203935275,66.10844098631053,23.979891869247687,27.501238025719232,159.03227306416517,-40.825553637819,125.8511546063879,190.07338015610802,31.126677090836626,292.6440079900649,-74.06015923233076,179.1444430592095,266.3587183112074,-54.673469521800456,341.9648921268229
164,0.656,1,0,18.17662104880432,-6.9227039997619535,73.95514060663493,3.611488207313357,64.963906766572,89.91224136053476,6.519470949761015,198.14378761958287,-3.435065240301924,146.86459559914715,137.70778519224376,72.46029091084083,275.7903716250459,-137.3702170495677,213.4989985432738,152.03063574855094
165,0.66,1,0,16.563304472495684,-4.3599050931897665,76.86538570368232,-11.941789504275313,92.71789604648029,21.993760898813775,61.40176922109478,137.92594878325133,-56.11607478989029,219.53195117546235,-14.314854356221531,256.32715286338157,95.66276214135956,129.78729792404943,178.60642849430772,62.83009226441624
166,0.664,1,0,15.436138087769182,2.689238190339289,69.31610294056892,-13.70565017039548,112.54477467634544,-29.61765334986646,144.9052993726447,28.440369645548643,106.54337547455293,130.98474805638966,35.64082130904882,238.5515620641928,-142.60030638981237,228.03529992435568,35.81167447564465,716.2937461518482
167,0.668,1,0,13.44612716446792,7.171079982884688,59.663867401069105,-10.982160576580796,111.08521761461157,0.5883721579453081,148.8208067829724,-37.002740146083454,239.80750732036154,37.275450674190665,184.20291283728915,-37.91404853408994,219.1253450825592,66.68676956025995,176.5522054986605,335.53905366774694
168,0.672,1,0,11.77172220768255,14.467165575279932,40.396145838006916,18.08524113054074,83.35030756059405,21.871151770702,112.26218600775476,32.116804105189196,205.62508089059992,-19.58650430492031,255.05940898927932,-54.225984435766264,237.1711832018956,37.67315675709405,217.5725929718741,-26.66887502911456
169,0.676,1,0,9.999999999999405,21.320601507894626,25.179384617795414,48.00623667456216,32.632307210081706,81.14025090647885,46.708284810217265,111.33428981793116,20.443008416560573,164.94412393036006,0.23203057590575327,242.87143260781016,50.509459019039156,213.58782739001336,54.2035548419321,266.8104276601548
170,0.68,1,0,8.192114363424354,27.617549829551905,10.026750063071681,68.73262556170963,-6.8448300584448845,130.42878457116274,-27.96688687872019,149.64648989850608,3.3279484744524552,304.2460412995704,-42.726200626348344,188.5446612983491,-2.583475007518672,488.31217726939803,9.619218212548077,244.98639517376853
171,0.684,1,0,6.497948796860619,35.33717835758376,2.366275292968229,81.63769545976047,-31.327511763223413,163.80357219979396,-48.00944713872427,155.67592153167516,49.94046126537878,133.64380004958014,132.69581234745573,8.602185812195799,620.218710006488,25.292881283379074,437.8939524936918,27.696635440106917
172,0.688,1,0,4.673961926735837,38.8686280104354,-15.124169650649556,103.89252819582916,-0.7174472727863517,116.33565012379422,48.95552825424397,53.640337846729885,168.80408375000547,-42.234190666210736,278.90959859528107,-73.47428954254494,397.58952447924435,106.76798952895504,141.1229254195722,185.61975620166703
173,0.692,1,0,3.0856137220034743,44.53828313227448,-13.658780368006397,91.37593501385274,26.65947616454486,49.55632494271497,150.33224906377893,6.316075546104841,184.63957888673718,15.209188680726456,139.68490005628306,199.74288170351556,-79.12629104151364,444.30180138608824,-109.33616608116387,391.19378856262756
174,0.696,1,0,1.2778390581109296,48.55263043964104,-3.8409713100785297,69.26255823100387,66.57057878590646,-12.989086293141966,184.39339824704456,6.68647663473898,113.12210250410902,145.8720953225014,16.59010583236639,212.6524717609595,31.971308116067817,138.71226677621036,279.07650657230033,-74.39232377454292
175,0.7,1,0,0.4749855652316981,46.69232001817215,1.1811250974908596,38.52834218579892,109.9652998052079,-14.28727272467897,271.12757198199694,91.50172945736244,-54.66093690234109,415.83834549978894,-5.782805801136078,87.07318409168825,373.6201195667819,25.739984106153116,219.83662439139812,205.65527595454498
176,0.704,1,0,-0.8379691040133803,44.81051736176413,12.705525272598763,16.162645061525563,110.24144422078498,15.007145443328113,98.99022578255224,210.54847322601051,-46.82975613116329,226.42771702882564,355.396006796283,-14.74004280704807,199.90071210931953,213.1608139028114,-176.20515972057342,211.28279993966422
177,0.708,1,0,-1.8550761245819078,43.81402725290788,29.059916768262614,-18.12374331697673,114.74438141103899,59.87105708345688,-9.616226098505592,142.14450415372167,94.1369298131569,-89.67721705908667,466.46583008124094,132.0439157263909,-26.117952097953292,272.1924231876142,307.75588392226854,-51.36277568458368
178,0.712,1,0,-2.9954712279767772,42.81312650301016,43.35432825664327,-25.31084942942364,75.05021977468911,111.19571690904796,-0.7376885567570213,84.18622839824911,164.27038218553963,14.467399878359373,110.27357554564021,203.75136169680553,22.230604093996533,-37.46588190623481,734.390558266803,158.46754129308542
179,0.716,1,0,-2.8138650695405882,34.07015425039284,54.77604632458077,-20.533321180653388,32.669848069145615,147.43333212407708,32.597758359648125,16.35706971655054,187.17855287901847,152.44272114820262,-90.98885872340972,133.82515701372114,256.1574734240586,11.513082220084442,-56.68414486590069,218.1508398051599
180,0.72,1,0,-4.1791030144654595,29.296389640229187,65.60744146598326,11.77814289859846,6.535153443256021,107.49315156224516,108.29301350543645,-42.28822651503893,43.7042181786829,277.7140150516052,109.48037094409135,-140.52382540133053,187.30254985416317,351.2168099001067,32.773678071027106,-10.664052794117254
181,0.724,1,0,-4.330848551486563,22.25912597589067,76.7022246176337,34.626813676202126,-37.29503979443869,68.8328416466328,157.89061571604952,61.54284350042013,-87.66439462080226,113.14633007261276,193.20696645282845,164.59338064471694,-39.85487252216788,175.81786011165659,307.39731849978114,260.1163231590752
182,0.728,1,0,-3.6260314948998698,14.564832956192259,71.8650444833587,62.825916026239895,2.5672099323935527,-1.6469959679005655,120.33838972457082,150.6397715242904,26.852674837353646,-69.39077356154382,152.80654494403308,458.23750751560783,83.75656934171792,-113.40359878064731,140.4341754294995,756.3944006105778
183,0.732,1,0,-3.9927539526065043,8.671462912157232,66.0142714934837,82.31439365412746,21.307454411877796,-17.421293436469455,66.80712912377442,187.17707836407936,144.44786425242086,-33.001214519271855,-27.96682249960338,143.87344956627715,295.5546193615237,161.18213790122635,-30.077485624037877,-68.48088854911782
184,0.736,1,0,-3.0737814005975537,1.0442152708464043,51.44516288783137,85.97595114221352,67.128725115273,-6.946578144683244,12.138833227466698,113.46403896205314,186.64854741971197,149.52380248985256,44.078910375133574,32.01554472313343,136.89763051804138,373.3880248668598,207.27904352100416,83.95658323707403
185,0.74,1,0,-2.414061302790083,-3.1468607500764634,36.03536356940216,88.85164915081532,95.59536706970152,32.97856051605072,-36.30285045552171,-10.911726684299822,133.89537810037552,261.37997189818907,206.35145186463978,12.54446756970836,-141.9707126967952,17.93974125893334,256.6983124188438,555.7719062043159
186,0.744,1,0,-1.5395308853760383,-5.059743697502075,21.099014486417964,79.32721844323368,115.96340535639621,95.295979840712,40.433165546881256,-48.5504216872431,30.76028729526671,132.42741863787217,232.90373741713375,281.6230930026535,139.5040224433071,-62.1083936432669,-90.52590880667407,32.50657325200767
187,0.748,1,0,-0.7983203313721337,-10.6345324890511,2.615556446873139,51.0682311742424,115.74335735801687,124.91164626173465,111.0031685263001,75.85592207411422,23.27564052247223,-69.67184282121013,65.51584086359591,169.36094935351937,421.73672511311304,640.0678405758338,159.91351643108092,-41.77301131053139
188,0.752,1,0,0.562396097477011,-6.922174773759249,-5.608830634235282,25.28082959480843,80.90864290078721,150.42224291708817,141.43027150520751,316.1153785073219,71.50889528782544,-1.151401999988309,-31.447986618840613,-57.36208357736493,87.30988757676529,414.4659511240691,453.84146933457686,287.16829523673033
189,0.756,1,0,1.6797730153947015,-6.009632296758415,-10.26317743261204,-2.815974370164227,35.83700448068988,98.08054408569939,178.1919623413305,155.46187677695866,406.74699945818486,174.71362463136512,92.85060198026291,52.57595841108669,-16.29417453846287,-174.35930302329484,-15.658148960186052,126.94346884862252
190,0.76,1,0,3.2331371808748193,-1.9439231658850638,-15.72135388648396,-21.67389812898277,-13.801632910959974,29.975312849942952,75.5976485098018,139.32137610635414,389.33000480801115,216.48663387760422,210.24911387497866,207.30260794138746,420.16762114098594,126.1678243881789,5.345553001946826,-17.882463819840126
191,0.764,1,0,4.560415518353356,0.8670317103140839,-2.4540745079839255,-16.931288107838157,-11.71724971171794,-23.921027622761926,-19.91408890836864,14.380450304351058,143.05642998375248,129.33878463963077,210.73365926081738,209.76549545617593,523.1936599385604,225.67114456588018,495.77659211303694,379.70059389485084
192,0.768,1,0,6.517955855805727,7.69343245758229,0.533515920484362,-4.183531477895578,-21.307408295560705,-38.298346178989306,-40.72982369601388,-14.350737124792715,-50.43590437783567,-37.14826144632764,40.9907822576954,-5.318529768855413,109.14873007490039,61.25251522916344,273.35215582319614,193.2017599012944
193,0.772,1,0,8.293344461745793,14.622180160511888,17.901283253357867,24.047480008116178,22.374060564080228,29.118975196293263,-0.7532633302507037,-16.008033784970806,27.57635395995254,-39.920189781894464,27.7351115143304,-28.00182779796063,-48.98403027002874,-50.50581194319449,-228.15675346230478,-176.1967300150435
194,0.776,1,0,10.000000000000703,21.53417388341394,34.10754870560962,49.14733245650318,67.33883348941009,78.13563369950825,98.47853395385687,112.64570694877338,147.48179018342682,138.92322435071122,174.2654144357723,158.3524588239106,271.40840502091805,293.29598842260543,567.8052987950548,199.0346374677941
195,0.78,1,0,11.786730905430607,27.717123188951355,52.355192378471585,70.12462786913244,107.45359903097858,112.24618724933353,152.4093798714597,183.31237537856492,218.6933066108512,296.1620404464868,317.52452902308863,288.77177048511373,194.91615510499742,350.3682425558035,225.972690480126,467.24279188706305
196,0.784,1,0,13.614185108468225,34.169981999241635,60.06991489266604,84.26019190472775,116.74916930995155,119.52295688354181,138.45287146111644,181.95239153650448,154.7367898776419,133.0101489160892,81.33351419844391,72.48383643588122,70.46409710016448,71.7875464574129,-205.85826436541322,-154.35675599417226
197,0.788,1,0,15.25348200946694,41.014326997577484,64.15059044375175,93.42595248641332,122.15050576913362,107.74231720969709,88.40949602783547,61.98319306396227,-7.441988567289897,34.60372390419181,-124.69830003789545,-9.998777446832833,-38.0528210775318,51.29801096952916,162.90338726742164,580.3973286974405
198,0.792,1,0,16.98490855514064,45.55704026985353,74.41377521057683,85.0461612066766,84.78402631776268,51.12245259919101,-12.585281173315394,-24.507101103826145,-7.146950263430185,-48.41138933824561,121.92040732954968,155.6291379568829,190.22270894439296,442.76315130322627,486.98403338101065,255.61936117342788
199,0.796,1,0,18.52272649702074,49.53344483544669,72.03109759929993,68.55418084087722,38.515794665689434,-20.532547063578647,-1.368182504813035,1.3290256824149793,51.6680429948606,185.37382712528117,443.2937185373325,358.1761601548047,267.94999511299477,135.18608877909938,114.30006771194228,-209.1704209316373
200,0.8,1,0,19.375044066230934,48.17393649841078,59.996716629301545,38.81075387566595,-4.434588450702094,-11.074894141194974,0.6555999340988592,92.45529851607763,225.3866979733875,509.5666852876898,395.44198886768606,208.1105333030563,13.630338140874485,-169.59856036342194,105.03306331722541,211.16773852012886
201,0.804,1,0,20.451061662188984,49.630566339151635,45.69837370904649,11.850629433848724,-26.61119831602258,-14.132437755620202,88.91174272806889,159.08926004728136,250.76970246420038,250.73835128905927,-19.131034760536068,-88.26848704420561,89.65863036127081,262.8141687987717,460.03345399869147,337.64018414780435
202,0.808,1,0,22.108135554553392,43.33841084926907,31.117940052166574,-11.551518196963045,-10.714101808146047,59.86262509430246,162.95795113029527,186.48276662016457,86.7705444697502,-51.05869336909802,-84.15229144964894,248.67742775548007,343.15139601860153,351.8985710037914,145.39292535565528,86.31858511015616
203,0.812,1,0,22.375381539559193,41.07809795996893,14.521778605017465,-12.764685527960793,24.53552807692738,106.74500946536993,188.6265219142622,83.54373537275923,18.403660448870966,5.7127756850756555,186.81528263585028,283.84936340033727,159.43710438078426,-14.712385394467674,-91.12228283798356,159.18964905538158
204,0.816,1,0,23.859858093945782,34.14245540533108,-1.2749681850826207,-7.467762323249367,66.86162657603538,165.06198565233632,106.52866056575932,-10.263864889226568,-13.419523946284244,152.8698280637497,242.05759934047637,138.7940628623757,-31.664983825710923,11.416050213893527,322.27902427332083,388.19752014253254
205,0.82,1,0,23.62978061031689,28.476881410806136,-10.258734303166015,10.227540304103204,89.31725326821609,130.9395167469412,13.829951346974752,-37.46040098566769,130.90275572846537,190.22231116170093,110.3435073931289,-91.15263530175284,60.480365205425514,698.5655930418463,250.23182103103343,89.51776600980324
206,0.824,1,0,24.450149975451883,22.194521593544184,-12.817910472873308,33.97810818764102,133.69220838932029,68.5103204272353,-56.115960269287,63.850710987587114,229.05996206824665,123.87603121112488,-64.33720060137534,75.13254467513381,274.24086871468273,382.71570764060243,-109.82772413957196,117.08538031415839
207,0.828,1,0,24.340230960348492,14.833616847947383,-8.911193528749422,64.48489883266062,99.14648082407649,9.635879954010548,19.213524570715983,190.40087251793332,174.358014289989,-46.36818073856435,30.239433009927367,265.5843119725354,161.47967810199972,-112.51365454433298,161.29713983651178,251.36107072683814
208,0.832,1,0,23.597611189422274,8.17639102071909,0.08574489705552679,86.37458603445876,84.3450094366847,-36.373606538102734,74.93295934402491,147.89645623281083,18.730482812980014,-47.262828432371265,177.33532983045302,198.1744357299627,-89.14001273909784,173.57158480077592,647.1766702860924,117.39413234089281
209,0.836,1,0,23.464818384484722,1.2866966931410495,10.782866258888703,98.0562781964789,34.30763451070991,-16.063725327424436,155.82373050411843,116.50264681658828,-1.1980548526879318,145.59970450674427,217.79680340806783,56.96888169452199,227.37329115759366,440.93866902186744,2.5758798137479175,115.32981113159241
210,0.84,1,0,22.208150071710712,-2.492095759238623,24.087981404746564,95.07642571850067,-10.40187130340503,35.963430513408596,331.69728861314957,26.36457856055612,36.48222618062941,308.3525664504242,28.99791133802458,84.48529933764084,705.2056820660064,-20.667898779864743,146.5659875652083,691.2991151952945
211,0.844,1,0,22.31803384758871,-8.115174794311113,38.748347240971036,80.71584278449814,-26.95495617074279,99.35417435391128,256.4062834956487,6.325891744193967,150.97099710801376,135.15658455477774,-7.561674646503533,268.66078249070443,219.34514922272632,-20.604671828209206,393.6818050812131,99.73609487180161
212,0.848,1,0,20.920624622805974,-9.626531986394436,51.89169485380168,53.59782156218457,-13.382894407331527,120.51720972750712,46.92876753245362,50.023272736730966,257.45865648300884,-74.1456737660865,158.64724420567893,213.27906905071256,-152.13384988741961,364.64053136202494,141.6149832420392,34.11172830983912
213,0.852,1,0,19.38056176932966,-5.54572603479799,67.0115286166502,24.822354553959073,24.207671899101204,132.448749219437,-14.66439106137264,136.27008652073982,99.76534340033578,-3.500703608562432,185.74233795331767,-71.91737369149428,157.77876966800227,219.1788460145051,100.7420195945636,508.5275272522691
214,0.856,1,0,18.528243689692808,-6.573625254368487,71.56396989364427,3.162321242173725,66.18785724883224,84.56352226449559,-17.502667581228607,228.79179080374152,-67.97338553291371,140.38929034180538,131.8148410134198,-25.143243717580305,310.07574943469024,-34.5997977986101,190.49373363078678,124.67074819795559
215,0.86,1,0,16.599999594350404,-1.9982160877891177,65.61785789548746,-4.3614534210107365,102.91916805361305,33.25164644199158,59.758321201798765,123.91664582886992,-42.09106517322769,300.4100277875642,-45.057890497961495,298.11793168197767,79.89072689071003,129.9951168460076,196.68949208808272,114.67135509115987
216,0.864,1,0,15.18443663948156,0.4879520674513352,69.87267061422382,-20.224076175219636,130.83926276291305,-33.18435154527448,152.19128355090078,22.122619580088717,202.82575270642582,126.96629972452236,42.52093550588515,195.75291878533582,-2.920302104653132,345.0326038277491,-71.872225608642,261.1747261384033
217,0.868,1,0,13.418838749156604,8.071629984057513,54.67325037973434,-1.1207565541885316,98.23950927595627,0.07518401726343171,182.19827481706693,-43.54759700062618,402.90376685376395,6.35058772183082,266.9757035430765,-34.85738979700747,183.64463138039352,49.78042712172849,173.2855695455294,168.9504305378114
218,0.872,1,0,11.787308706853544,13.80480470613556,40.46897009024355,16.777632543320582,83.77344329873415,29.38475587702,141.96929273312963,9.171515996830124,364.4401179812188,35.67387051560331,179.3121985562861,-29.274608629007616,310.50911238614776,-18.42695302058698,459.97465945624566,-110.9884420500162
219,0.876,1,0,9.999999999999277,21.417755840933125,26.08729958331396,48.215675097237096,33.47297638894362,76.07892659842912,33.566215111814316,213.46920119763513,56.66983555801295,191.64645096037444,29.604464732238227,257.5668343194804,29.840797331517294,264.48415038153405,63.17646483587269,415.8985769429786
220,0.88,1,0,8.272028259236825,28.98518696467852,9.034947018980247,78.11257588917573,5.596969924737294,146.95164964528877,-34.51902578429885,226.9695317597898,-31.431297125551495,187.81833301916373,-45.25770478498228,453.71033353222197,64.84920628958857,237.89307828810448,-44.125011910642655,218.64576252374107
221,0.884,1,0,6.427255509300615,33.384330957510564,-2.5959509159906986,91.15907120991821,-13.513124432226107,147.38905652256074,-45.734022193044964,176.17975272583863,52.31198190091581,113.48263953070678,273.83849438931253,114.24875097989863,275.21479529066465,-162.02491054094645,413.86779666438406,-216.45572447331062
222,0.888,1,0,4.924528244487523,39.41602518235444,-5.157316757645546,89.28855298192505,-19.610818574069754,101.53447529485206,55.02712262436718,62.07803083331867,145.01484169285834,-82.45876984430618,592.4587446129735,11.996354336642185,316.2902234823705,121.12386166048054,131.29613763459307,330.215995207181
223,0.892,1,0,3.07111800509867,44.64716041795926,-16.87760359208886,81.37183350589846,19.08502367655967,48.53187080206689,153.41271908303855,-10.189800765123636,236.28589939912564,-51.397031059016086,149.8174225262307,176.4350921488751,72.65009552132541,823.567393381695,-176.62997518852126,220.2263819909688
224,0.896,1,0,1.6156231937492773,44.872374003064195,-6.323421392672536,64.35006459079906,67.4092489561951,-6.440509000763868,173.90658709104775,-24.045441611771494,119.29735138590432,180.041051223743,-33.6808059587776,263.27965367884616,-45.290703936011994,137.71940021951792,625.6545319704709,50.33885152122855
225,0.9,1,0,-0.01853908604297061,47.96266636791607,-2.7791405252237595,38.84396838352494,89.48632640835498,-26.151141784521627,114.23007707374319,90.03483767021284,22.595457343130732,544.8938692389,48.78785053516871,81.17232641735134,252.59471525300674,56.8431703364857,489.9006691321234,423.21808027446116
226,0.904,1,0,-0.42562753490728333,44.80696843752213,13.46338832154316,14.944301861254967,108.82246773987552,5.440563332581711,58.227474281486565,211.88421973768735,-23.588968975322373,272.74792444098074,161.00308605470715,-77.01750121452903,263.1140606111185,250.73317797151947,-70.32887965465449,718.6522515833528
227,0.908,1,0,-1.7411457273561712,42.63725869288233,28.9749465321862,-2.579100725046274,100.30609203840308,59.85918545926293,-26.907228723025696,183.84944352579714,92.43278057712557,-60.34007424953563,266.5617135955161,125.63933240659499,63.969430252200105,301.58747291412817,154.04168108722547,-220.922597317022
228,0.912,1,0,-2.3225948380792616,39.447819144939665,46.30263588420647,-16.42027939006372,76.25511363939069,102.69713726900679,-15.674546113543116,83.08517382194658,218.43515461426045,23.205860603308807,45.67117737576065,208.4404814962338,87.59241128375356,-83.81964694999459,453.35925196686463,158.6876051921354
229,0.916,1,0,-3.0710265055593844,33.95984327988444,56.10011919519397,-20.478377711026233,34.766157135446676,141.0116273887509,40.360585292528825,-49.60393509077298,199.41553715484105,155.29257035946563,-28.544361049092032,136.42588257172568,563.1625935305053,-3.552776677142532,-3.3021991263628934,517.251147515489
230,0.92,1,0,-3.6996328181564166,29.562775389096398,67.3476357789003,6.0080328181695535,-3.4599989428595066,111.41835911809261,133.5390122800284,-19.612563826550343,45.58407954729377,271.73273810995886,109.39360047686787,-112.26740243452963,378.0408835503953,322.7723726309015,90.57585342290679,31.3083150451663
231,0.924,1,0,-3.672188136754432,22.249371615082833,69.80509849297432,35.31095645951162,-8.559355438087692,67.80435789126545,181.03801088928745,57.650213083940216,12.263367669314675,131.45352116793805,199.25620719362368,95.44418423747692,-85.39012844700085,204.88275680314152,350.56875929342175,110.5164925947802
232,0.928,1,0,-3.568328005475081,15.161165908612741,72.99548197259912,65.21447759339088,-13.253878018540249,19.387350155017494,134.82726613834726,180.18747659687097,-2.540520319319768,-13.210155798103656,137.60558387795754,190.85082325866495,108.0195508778367,41.32143802538015,136.56734313304986,468.3324016098622
233,0.932,1,0,-4.163197025819983,8.287923810441058,60.101954306103536,83.13075206024195,18.129618675733088,-18.341228887872276,63.94274320666782,224.91100683253595,162.68352916190173,-34.23118832663201,-8.720646102198941,201.52340794964562,228.01636551440282,162.80172200537274,-116.24384424872744,85.41512472015742
234,0.936,1,0,-2.9115310542697745,2.9622767812320205,49.55956026471734,102.99597231203461,63.34433766339024,-5.268503658381533,-27.67144306700898,122.86870371330322,255.0019039198115,185.40918331251058,53.821635539843584,27.193829425785538,133.84847211172783,457.23300871182505,251.4730453648261,-7.4040597460424635
235,0.94,1,0,-3.0712401568140724,-4.358075895812995,35.45430617315052,95.83598794587932,94.90920331552485,38.426228931752256,-15.298981181661901,-17.94318490786941,117.93321461194753,249.63457048181994,163.6011768433867,16.437966983031174,-146.76595771041013,4.150717563404015,300.2837995650454,532.7150161782652
236,0.944,1,0,-1.5848106934098798,-6.031563460500152,20.319981334850542,76.85882070464302,121.4689506323596,93.16435450450152,14.807163031794005,-43.24138836596089,-13.720728970807826,126.81266595036149,252.15207186688318,297.2936150135464,154.8824910595322,-17.489559313709094,-76.07933246267137,108.73418230646729
237,0.948,1,0,-0.7578639808645811,-9.95489878773656,3.940964771927107,51.11089023723482,116.83755922562763,145.12680164592234,98.7374827175628,21.58723570393952,8.945772781247626,-28.449481805598197,65.78220485998361,258.65956877456597,197.71227309272143,346.9082418972335,174.25458706898928,-102.25359495515852
238,0.952,1,0,0.32068334605733106,-7.174874820907789,-10.13581959975263,24.834256039544726,73.23474507888153,130.5985775692008,156.21816714737395,122.46248616524751,72.9565295911643,46.51742033379512,-68.25732405132575,-96.3349791704685,96.83921249913797,408.40610923039185,412.8351856484079,497.8852878933154
239,0.956,1,0,1.871880831239178,-4.218548792594515,-6.185507760808413,0.5462590551776714,35.41319722439165,90.95659488773677,149.4564934957994,227.79326377747392,234.86428454256134,190.8800716397678,95.92728631443383,-35.28949601912811,-95.11352134712763,-71.58977171930985,35.56111839914291,120.57562132971405
240,0.96,1,0,3.3613050435364054,-3.4627455135455385,-11.71333702156732,-14.978054724549366,-6.424932589667591,29.338492215108612,80.09782403001631,124.72396851158699,193.71180927244433,232.73522698133786,220.6527652475562,546.6636871791181,200.423290659003,205.62159895645124,134.13553961970538,-197.28483579526585
241,0.964,1,0,4.573970690520306,2.9671248845161635,-9.23488445583616,-20.214099076898542,-16.193869567620354,2.7051602063275055,13.532724598961437,46.39332185663149,71.92897400728894,129.06025639221087,192.835662646581,543.3569961233054,309.4263509006816,202.32232490094285,772.5529388534876,632.365497093554
242,0.968,1,0,6.656314717127979,8.314111108081033,4.278260844370529,-2.195783266522035,-16.372356171771386,2.8753405390123774,-25.3191684610334,-59.31837012676161,-55.60966808544791,-79.14457478119502,37.924796705668314,81.07274087912884,66.0652353638969,103.52739950858466,252.80645569443593,349.6398653055188
243,0.972,1,0,8.293158558691072,14.834553416129026,19.90027498560739,24.208127937899512,19.184154177257813,20.60345441325977,14.553535382297518,37.33798466423661,-26.44792036839101,-18.396341294389046,35.000054490727365,-4.246907297958288,-44.19709808998357,22.904271101331148,-81.30468232894313,-15.420478806518645
244,0.976,1,0,10.000000000000746,21.350958050675512,34.07018536775653,48.20490194752795,66.89075610511398,82.56712501904181,99.08074303163687,124.49511010444292,276.6658515235757,158.8357065579889,407.7425559172656,184.1487060615283,210.7421738885841,190.18106179701564,338.5277805903612,292.9922960317028
245,0.98,1,0,11.80208602954268,27.63503881979181,48.70844601442637,78.24297423880803,103.34234216767612,113.53443990595889,308.7756032681283,188.76325662147215,468.8752094259382,237.89996392710364,297.578747886461,341.40798967470204,357.06804635785045,346.82227447918626,301.6280594378202,266.4720891640838
246,0.984,1,0,13.388814786572253,35.76666995537432,63.89713025270821,96.20319797594493,127.44447120890395,143.61620980979723,341.0344792976449,189.21835583598272,159.6229206777559,115.58481532752303,98.58143906025359,17.119027351269807,63.286544917167696,59.92730990285547,-30.12030991317934,23.241716765079275
247,0.988,1,0,15.29120448263791,41.12517179907934,72.25914045183023,87.60844725446921,115.76154745261394,117.49125493159428,165.50079094687163,52.427138850036755,45.55921418924438,-20.234437774010132,-83.75048878599287,11.791442186811324,-41.73801162040036,33.09868951202439,156.7840088280835,206.93319127116303
248,0.992,1,0,16.893459361436694,44.173430535661815,75.87767719303632,95.22504741598014,85.17031697332212,47.98295524462118,18.16058445226085,-56.391098297624694,-50.91537635482217,16.425930724895153,61.37106948282319,186.89634001976484,555.7062205702605,458.7635923401022,341.66601851111955,215.41076836830513
249,0.996,1,0,18.105207976654007,45.98228486779367,63.231188433695245,65.52114518330846,37.917397261225084,-23.08175495664527,-14.365406923936476,-46.136641124211195,60.93203231567132,148.59031337640704,290.23887431109523,331.44269132331135,439.24219036396823,133.8110676762824,-65.9303567663386,-33.160218653002005
250,1.0,1,0,20.000086121901784,48.640213765740214,63.4148514939207,38.80627244701239,-4.218464587829729,-10.871052258380942,-16.004639301991887,167.7242368418333,212.83231922646712,444.8723177844781,233.20751545433436,95.88387394060726,-42.5596906544032,-109.83872816027397,10.814153974154578,202.2599664802607
251,1.004,1,0,20.41495515621738,46.59549946966634,46.7369531267488,9.443505519626935,-18.55408470432741,3.495340278923102,87.23331221901196,148.3072290144164,217.05093679210694,250.3853933106856,15.576152506591002,-126.38316683393153,74.63710057678506,261.72309161631006,341.63594797879284,371.87327872941404
252,1.008,1,0,21.56173196526337,43.48273511529656,31.041293442731508,-3.3376260249358296,-4.83802741745577,59.85443345176464,168.5705104428351,214.7143369867049,85.78993161547572,-107.7147150206456,43.25727949723259,123.35786827973597,256.2945291032429,365.4153360734018,128.22721920597613,-171.24091695848972
253,1.012,1,0,23.183680206072932,40.812487534553796,13.769548179111528,-14.999412120857997,19.751812002132045,115.81582082469112,185.55986906518953,83.08061158377187,-51.250116285019004,-3.304177995341931,173.5951239384279,241.89435715890747,234.8126985564339,-85.84549141762125,36.327813446592145,159.50409516909195
254,1.016,1,0,24.095538125772244,34.16427611248503,1.9799163751967654,-7.569809908157438,65.49791602999842,124.96357507691489,94.90724199903397,-12.174744112202916,9.523936134306908,159.13924382778345,341.4203166771721,131.712954916131,-118.2317405207333,-50.119168693818125,311.47317366550936,280.68233319795684
255,1.02,1,0,24.49537682229449,29.442623106598703,-10.084454718810122,9.263448652812915,95.85049879059717,140.13679938476915,15.749102602524802,13.849353678425544,126.4657280386351,204.0236874248696,110.51698370298716,43.64710577680211,110.8579969742231,640.4001169887306,256.8102076917757,-74.44128711540696
256,1.024,1,0,23.92588910626918,22.244448749708013,-17.536110086724577,33.25403275661734,111.57542738978566,68.48038406078449,-27.96247309534712,67.86597680449826,215.85741104584915,113.90075187974765,-7.128098672532687,102.71255004520938,386.3887962042466,386.5960946897675,-74.52669964933546,145.39806194438788
257,1.028,1,0,24.38035333863708,15.183974030651406,-11.794770244946939,60.02848365354198,120.81447377647063,22.390419064548553,-12.034220294211593,316.74180017829883,379.25499570221575,-93.1764339604841,107.82731057529999,639.2205004716873,284.14158147124766,-170.75231919004943,359.2740220921918,884.3964663591701
258,1.032,1,0,24.286461026791923,7.867345308840144,-3.641537390786695,87.3989939451319,73.11058768798414,-30.96844420942412,141.09257408371582,388.09627173454334,69.61894110699535,-20.05415673216865,479.0961774867243,372.9162472958904,-127.00358878002464,351.3174261936977,834.9962902257292,3.3917080091271714
259,1.036,1,0,23.76251339244577,0.5225600640236152,6.265515962847953,85.33872354837918,34.92075041329438,3.497336231240645,151.65133211952192,99.31358694165498,2.807619671955706,165.44905232111023,211.43807911744108,45.00892450288619,124.96514957088256,344.1329690200944,35.16054472512694,20.30585910689132
260,1.04,1,0,22.39194349144229,-1.700200136924341,22.982727390611114,94.49065558897301,-5.305929989441601,41.840027083539034,171.46353904014367,21.46659959242273,31.7553227720798,308.5665349268453,27.201388572856686,82.2427835182071,417.44137246268014,87.0602097303265,42.1305528688993,206.79486561618498
261,1.044,1,0,21.61820274207935,-4.262537617950514,38.666890027123344,85.00559937137555,-9.582123749416127,92.22993520834603,102.07466183611751,-15.31312877555463,171.23020365303972,126.52108934050368,-90.32464562439657,355.40289643067854,106.55833787979847,53.687868733259165,214.03953956040118,16.145083898421774
262,1.048,1,0,20.647015795262583,-8.92170688169115,57.080392204564475,51.4474330651949,-19.4930485833913,157.22497071961203,26.062780426993704,34.576527951534345,257.9818902885338,-83.48062338889898,155.13282022721003,165.4872773595459,-23.586299719273654,382.62563938142796,144.96100415778668,-51.27414513304501
263,1.052,1,0,19.604384776546432,-10.719535869356303,64.70043210381193,22.546105861037063,22.668692546129332,147.80338322737043,-46.73505117623961,152.19234705289807,103.70305912028986,1.1138816877355566,347.45078932712676,-15.550522235394512,180.3973104542486,274.2579395446046,-13.61531700501044,312.34234377382313
264,1.056,1,0,17.968173428002377,-5.442599965818193,66.43763182445977,-5.279359188008193,60.757306539859776,90.36785583045103,1.1209855647758786,232.37046244706016,-48.146199193755876,160.32570796376876,139.5484533507495,-1.7091180761909186,257.9284706938981,-148.42216530965982,320.6970308363425,122.16310366060172
265,1.06,1,0,16.50640490421021,-4.864728407158935,75.32752122451232,-4.113874014426393,92.73530620391213,27.38367585114581,60.85379425110688,121.06576013739837,-1.7241708326567249,235.26364135714462,37.42528448069157,295.18934798110797,55.29901675054708,108.71748604128496,286.55387082773257,88.10606964922707
266,1.064,1,0,15.334971077147225,2.436185687836012,71.47929380343419,-25.224535871643013,136.30010545627783,-17.201314601207812,118.50323474929958,7.749509844763381,103.52728106061994,129.73031798591916,68.80358558093869,177.40539969061552,-0.37109238834449343,414.3642322287552,-104.1986632067642,454.62084478907127
267,1.068,1,0,13.557178788699574,6.574706329713887,59.50599750315222,-9.64855253592367,97.54413768341645,-12.76600010498963,163.78295649813396,-45.905543907278016,235.82941032744205,-31.323058502139105,251.25372541166797,30.478466770593855,205.2427808286683,104.2143402842508,164.91079117322084,208.9900064824709
268,1.072,1,0,11.729820242063425,14.223244381959068,43.089440534937296,23.316626241557508,78.21842503748621,20.48420554317586,115.39929922684402,26.630421260648987,208.1305548261957,16.876948213868445,189.95054207275092,-29.27700474909551,339.9004771811315,81.35387899611328,201.2683971126196,-56.78989389994129
269,1.076,1,0,9.999999999999256,21.30152245225054,25.57219730513782,49.788319571130934,39.22045340245479,85.01090580390286,39.37001495956997,113.39956510797637,47.33421564758454,171.05356052646454,41.89996919283388,162.9992907389647,39.82310056484768,219.03618674688732,89.98172362247288,356.77015690701785
270,1.08,1,0,8.240765151837596,28.948437650544733,13.11395379368535,78.40080966409724,9.813475173783544,113.09593058235087,-29.945289603044117,186.27864272728007,8.32339846022802,302.56446916426046,-32.563240711167964,221.4895746916703,-42.29037236848538,236.16164651274386,-8.449298046903778,308.8285963648417
271,1.084,1,0,6.549616238958103,33.74792021411576,-3.812467305339119,91.00390242664533,-27.55796633941752,164.42417494134293,-42.47987237845554,184.19888194838381,32.44836222315232,120.14855121273966,122.68089395832928,50.07066874300496,294.1061163729462,-45.15534397954622,262.19808280462473,-161.87733640730295
272,1.088,1,0,4.976866355789488,40.72008115275919,-5.251782415857143,95.90780902060698,-1.6000647799493066,122.84782977653103,48.36202472739565,54.85665016819927,189.11061739987065,-80.50849353385442,250.1114224898427,-92.88981391717519,308.8685486852639,86.63496394191574,275.8951615781577,514.2729696739465
273,1.092,1,0,3.2049579530831727,42.50789914912191,-17.423730661947594,81.47885698548185,13.643474105361115,48.6006469243169,134.49737007733953,-38.28573944334717,226.08335492932954,45.448518375830474,128.20899847858598,159.15186123977668,72.58905283654562,728.9683788824248,-225.60714758664608,640.326457761689
274,1.096,1,0,1.748916562618085,47.795735000872284,-5.392466616115307,61.243505223139756,61.18402438087868,11.692191953392346,155.57674267768675,-6.714090576683063,127.98765039658366,158.7316371484311,-47.41538177419454,205.48697113654754,-5.325259363312227,292.54698828861194,508.0524320109442,-190.62017068391032
275,1.1,1,0,0.802453294537397,48.355757355096856,4.001270888785374,38.64344984942106,110.99607677427898,-2.5837939945205264,113.13738871903507,92.96392479984391,-25.959600391329417,211.41691283683053,23.25107097067024,76.48519956041216,463.0923241999861,-140.9434336708918,259.106750751896,226.57256462912466
276,1.104,1,0,-0.6664492908032056,44.75935103026629,15.199923137756269,8.344436061178826,131.35879823990595,-11.944530757783482,50.555760895033515,218.13262096345335,-55.88111851451791,122.81894292726544,237.3119369758575,-96.45796751220007,440.6445530497232,250.63411518273662,-52.60655444155634,276.1909824474116
277,1.108,1,0,-1.8198077525548175,45.00908785138215,28.990736116290797,-17.71514484617009,114.61642910454536,59.87196947620297,10.694253419321733,169.56447908531186,93.32334806606173,2.6081807645655175,229.39091038842741,280.9705807950461,-128.93139054947278,239.46202286211684,160.02784902832417,-181.9106044376199
278,1.112,1,0,-2.694708012155907,41.14690753150051,45.20661632614639,-6.272693175944788,79.07345228563136,111.97469835455621,-49.42416998902206,82.7282344515932,228.6136479003039,48.94065847801965,93.69863905498521,487.1477207754773,78.19694941565416,58.12798599510734,468.42670821890624,159.15908712526095
279,1.116,1,0,-3.902916676462016,35.73888277492233,54.89059026734647,-5.730914834128605,35.55126989182922,135.3742316386266,34.723098387654964,21.75967099710318,170.75825578591005,173.3314277326112,-88.68584472635786,133.5050591165984,239.6853811081258,51.887417484783015,-6.92167047899963,266.4729497698818
280,1.12,1,0,-3.9400765404867073,28.698535561712802,71.99696012489824,2.7229667615651607,-13.857312633891098,136.11070903773992,111.75707126574079,15.58150675806891,65.16465556012201,206.44162923465802,218.72314166135527,7.380473350872606,196.94561415148678,194.50651114785583,92.80437828542894,102.45720210971729
281,1.124,1,0,-4.237376605086421,22.343100756178323,69.2637491648808,33.15583745615629,-31.415613311899147,73.74809463710146,145.45312170370508,66.27538571994715,-67.54384757567286,239.5024723623834,281.03262914721324,67.1665307220391,36.68643874049326,211.76767344717706,404.75253973999736,113.15771548056952
282,1.128,1,0,-3.5211766148772163,14.723642257079495,74.55423109746955,65.18684601672817,-5.102874067016884,21.902466402034392,126.11330941195727,187.4941579314907,12.396220638249872,-96.7288037651551,162.04212879224227,210.88867882427922,106.25097262532947,-100.49816141131211,128.04628553099158,230.0107541134235
283,1.132,1,0,-3.7171542103952326,9.115982626740218,63.583136804955636,83.07641529613902,21.43533275834445,-19.911872386492988,63.78160331151356,200.65444375269846,298.5306512435647,35.01890046826057,-84.4073372335697,176.02420731406175,341.7792688123983,154.9987781752135,-14.825180421037231,-32.94801321679415
284,1.136,1,0,-2.9885944913660367,2.041003560225821,50.380400627441915,97.13654739968396,66.09203475840329,-13.554354572997013,9.307075647031219,122.67148055911703,403.3080221255749,180.32385141613133,37.5453339434429,-109.50724131352547,137.86210366182047,197.11882989177465,327.4594394178837,60.432714734144625
285,1.14,1,0,-2.2956740374918194,-4.703305585677832,37.01733176073328,88.31643468058573,97.84299500771326,44.66752176519251,-15.840995313524914,-19.697196780810117,258.0904163716035,302.52101759342634,182.3223079024089,83.63788017067024,-45.4371236602276,74.42661323816967,229.51684160490208,378.3182531089424
286,1.144,1,0,-1.8759895606470618,-7.948186772710092,20.649749260805383,78.41597210687328,112.68411664266353,112.03970957347332,16.544408068492665,-20.912434248003606,22.360786199278266,136.4231558513407,307.6339543090742,292.2939801240889,144.39822655833194,-9.508070260502137,-67.33241858281784,133.97256480536507
287,1.148,1,0,-0.4264173895748886,-7.573083430914792,8.884640003076633,51.79144319388669,115.0642899089993,120.36599978660736,123.88360869051161,85.63844179162443,21.318513733402,-5.186153189437846,71.3652739258371,228.4613361770402,289.5927220148262,195.0658400207666,167.72283432533857,12.008686296739597
288,1.152,1,0,0.5962599690244037,-8.043819226404331,-7.424274893928086,26.548786118562873,82.3953271219128,136.90202604159794,198.18254218780564,306.1645652569221,80.33916250642994,-18.474463329005587,-83.67661082109223,-76.34652746575708,89.07333885586714,243.32652650377702,506.7926079161568,712.2789142435731
289,1.156,1,0,1.2725424252067814,-6.949160047710702,-8.771990757695882,0.061691940361740194,38.30099277281354,98.37231069230145,159.6550395029857,391.6110749258222,200.07415615166462,187.04987429899603,98.78333778713038,6.791829243447751,-66.05700373628326,-120.85220690947631,-56.37871014070032,112.87078287843542
290,1.16,1,0,3.277768282824116,-2.4139007569761937,-9.413390132565048,-17.901281355434413,-0.9197899612247866,21.955418742419624,76.89226677761587,153.88918250320475,198.16185024693488,290.9907940413401,204.09351174558242,302.5431389318448,181.99438090324355,256.36336317514025,118.94786510008308,102.85012144059394
291,1.164,1,0,4.702590576972598,1.2796938415043293,-11.704362646853632,-14.072819528883201,-5.619802837776149,-13.47228446268447,-11.21074334187017,12.761180390604807,63.43851693525896,114.531349841551,222.33015506783158,268.8134003850279,224.63102700935104,762.9038234937078,400.35854908239656,276.3431689415387
292,1.168,1,0,6.626297277178541,7.029108101437918,1.4270775031292686,-3.9218473046292743,-26.750564856649135,-7.086959308438395,-80.39277136863856,-48.39455147403993,-26.736539025257343,35.141923077189446,-69.9808263534083,-40.291922330391,45.78076898873819,132.77748269385262,136.25919569029242,172.21522799610048
293,1.172,1,0,8.286575754904103,14.11644957563233,18.282940668922464,21.7684966798104,13.511580601781851,29.535860069415286,21.346985716807808,30.638946877479764,-23.480517689897965,-50.31493137798398,-13.778350348057216,-66.57066400588661,-43.13500442924828,-43.000555224999516,-66.72679348634941,30.626326104173273
294,1.176,1,0,10.000000000000869,21.36505929190266,34.763129358673815,48.279730461826745,63.63824685134083,81.00195520793858,90.77067807990557,123.00229326912405,143.34263315740753,170.07138772267308,160.78531829760223,232.68745198972096,429.71919416001845,283.10680675215474,345.27776528361983,273.08858652332356
295,1.18,1,0,11.824267228969306,27.89920638522383,48.01592319743324,68.93255706983362,105.32438716611594,140.6344873062685,140.55733489290736,221.45888711053564,247.84216779068592,308.73959169075727,213.973213699124,215.44850075487855,479.3923872092449,218.43197227738221,316.60933995720717,305.07008930413895
296,1.184,1,0,13.409146918089665,36.08985630304204,62.507238800031224,93.15250359101148,130.1586276560418,150.1736620513522,133.12834254494803,175.06984704629156,174.68048044010303,115.69743731214169,84.0126155814726,135.5127598879646,-12.384347190730011,-39.26708481214777,-17.735828197914373,-152.63891710323605
297,1.188,1,0,15.361923078778315,41.52936312825703,66.39960983846996,89.83705434139553,104.28269268514154,96.7113243575401,88.08453418845983,56.41143301121501,6.965362581237883,-70.58726135109526,29.148039669322245,-50.83904929413998,-0.14151728370808314,81.15875706922418,170.4781986647283,202.57676098429306
298,1.192,1,0,16.584127600530977,44.80379818376808,69.02288519426978,89.8237246806439,77.95773063387338,48.72646632732437,2.156390649843985,-61.330227145389244,-62.09653270713701,43.624004386737695,57.29054586655255,356.18611416396135,326.18634339781806,407.42392939215665,369.4822463191347,338.74199773595836
299,1.196,1,0,17.95792112129704,44.87287224714683,69.19518047283225,66.3362055139776,36.789519104881535,-19.33798676965621,-53.493262035169536,2.9773583881787857,68.54051893699446,171.51890883862634,275.3446113828908,287.72132675309297,180.05807209331158,133.56299721683038,-10.810802593221666,110.07195935723097
300,1.2,1,0,20.09488973640536,49.35926085699828,58.2786117855764,38.38304607831051,0.695691507353537,-28.902857517284744,13.98739804517988,95.27559344739657,204.45230525429216,269.30456306386793,397.1851373352953,95.76126619944793,-3.6570390773919144,-28.4363938846993,14.816159242633375,233.40286936088546
301,1.204,1,0,21.036947137250035,45.91646759755916,44.81401100076643,13.094716565109191,-19.516352660077615,10.534443519771493,85.4489121384554,191.02096812545932,200.66114629803857,133.9367477697749,-38.622762424912366,-129.94731373984501,76.57384804058489,253.99033691850488,429.07845819570406,808.971459939557
302,1.208,1,0,21.792828720201257,47.18207188137161,31.244725510426044,0.5846652630622131,-2.3975817386411222,59.91904166881911,182.67679573215725,174.3934923272863,87.29702006515484,-1.7996135517613823,-41.71366383309547,132.1183993608405,218.09427958555608,258.46740430886524,124.08075502959599,-114.52959539200793
303,1.212,1,0,22.4324204645812,41.07230685056886,16.410307132755214,-24.887024123802703,17.252738866910633,103.5807378107676,189.23324879554818,82.9268906450408,-57.81106093474551,-7.0905707700109275,170.69397776661617,260.2988788175411,242.52660459919935,-86.85863891914778,-192.6993999055373,348.36461798391804
304,1.216,1,0,23.09502805775577,35.16674082856393,0.41619659750749705,-5.406403828071362,65.3741027119822,122.51990697155512,100.8027482519183,-10.429029945696513,-16.03187282126973,151.97452196402867,203.30428786253566,134.1552124546461,-154.63673332537996,101.41090086363735,534.3841516606703,221.68557246544637
305,1.22,1,0,24.350207813689046,29.325561557663562,-7.956788969289818,12.416914134011115,92.51883230073565,139.14822892151656,9.045840919450818,-1.0009746162836137,135.40454344533495,259.54694426178753,110.1898342180057,15.642160728734597,77.75325168780337,396.86904646717704,535.680809892669,-57.586687855968535
306,1.224,1,0,23.86902716077154,22.143953381340488,-9.355343901957063,35.26482061937785,111.05787847416903,69.13253382904797,-43.35260780248022,57.37263026716217,251.11406751149616,264.5790998364495,-119.80432997895272,89.28173851122013,277.3964994403269,205.46469187373103,-71.01357216331502,117.31730410811033
307,1.228,1,0,23.768412301128116,15.254954861155909,-10.433911595507276,60.48511556877761,121.35871966135639,15.357249068443844,14.525957089121412,169.93915588737377,166.62884765060028,-49.84510625997518,84.03771075568508,278.65058831529666,144.04481286011662,-163.154304213062,170.46089385235922,545.7120723427748
308,1.232,1,0,24.146041914128887,8.13696928278478,-2.821024140886422,83.12146200047226,72.56879516531278,-31.63716111938649,74.37802189499985,152.29059664141505,20.826207177568122,22.841846336951704,239.79437886847484,141.99799611330192,-90.09491856753698,336.0743664371723,424.0632435630298,57.22141426928644
309,1.236,1,0,23.92148111980653,1.252140274901656,9.010272870218348,103.80469511555226,38.13012763180133,-14.832934361083105,133.13499022682933,110.58374228900075,-21.242842633082546,135.34533747290936,188.81305802598,-38.724581643221,125.45406639661694,744.1903981952963,31.34385750715984,76.08065136564858
310,1.24,1,0,23.207324797973804,-4.4874735532527374,23.057920880231507,102.01892785004802,-9.481694243251603,35.50507025101767,149.5281305133933,19.553402157682207,77.20284328742979,280.2767383499562,37.15268548005412,79.90748501726657,328.87044496972055,100.80144104541753,84.66532815846851,554.6285217138027
311,1.244,1,0,22.008563929710157,-5.132618737211434,39.37199598361133,75.80149758563942,-31.369277114015123,110.366265590619,121.96306724696453,5.73883242010416,382.7998820257758,119.53962031419215,10.153391359279496,344.6811169647021,116.42211080110181,21.140526206030984,238.7493759759409,81.51379577822117
312,1.248,1,0,21.1994441149455,-8.825870206213892,57.344134499980356,52.995303847893,-22.36664522611241,157.81299871722558,17.484467127478688,20.63504751641144,443.30540289859164,-15.468491491222393,164.99326320244552,173.51921042644986,61.713080614162465,213.9098557935248,124.7425732386056,125.2784033632684
313,1.252,1,0,19.434926733053597,-7.521163952259748,65.95744177255752,24.7220670339061,21.513557106621064,125.07420440286869,-11.595327889443126,149.24492457760283,103.68999990360214,43.619779545255945,216.67392113818903,-18.425206547709962,299.760866667348,184.66211525309697,-176.1626982952015,457.7674818059276
314,1.256,1,0,18.150686661224412,-7.846828763255154,70.53663222693174,1.4645054710002654,63.71140588054247,83.38921955641531,-19.826440996915636,156.5485452320877,-45.01502894353746,133.9877945009991,139.4570981094671,-31.098413270176938,782.5767669414338,-122.41204888425192,382.17571094350797,140.55465030350487
315,1.26,1,0,16.949169774998254,-2.5323104827660714,74.47345415186942,-23.439358568755964,105.66332739541991,37.32386351017321,63.91894676938672,142.95476140566612,-46.44295989457282,308.76877874912947,-32.48656993975351,299.99655922086754,160.54540848459322,125.2234578359082,314.7326004085829,-148.8412245451383
316,1.264,1,0,15.194995938958925,2.8152513233243006,68.02467811285626,-24.47040675402326,105.37210146704388,-5.251384938484861,145.3566856199072,38.318715513869,104.86928896532022,114.8107749125126,75.9325504484016,558.0028575293327,55.08873846218698,242.88018149786154,67.91545736078109,664.6611590359468
317,1.268,1,0,13.677129280292636,8.26034137533428,56.536801656561956,-4.183884698403936,99.54419679516137,2.368587411536147,152.74525898534475,-8.181124675577465,257.49688618204334,22.977028051223968,252.02001834277928,68.99223648813555,241.88002928789996,79.15111946679875,164.90655640643888,372.61535319574625
318,1.272,1,0,11.72790081030054,14.570891899735756,42.17570088905927,23.923845696286907,79.18010141160187,11.032220389598315,109.71041523028211,47.140303377836446,163.05391133371432,11.857573885598967,237.36608663192942,-96.6125067728155,205.27529577459075,57.71899578801501,253.61873208535778,20.95782913825559
319,1.276,1,0,9.999999999999117,21.280355985508653,26.30844891151637,47.97735812829172,36.36175848897502,77.96571939916525,34.85571559272107,254.52202479384155,30.980528268491312,143.00734731841385,8.457121997050692,179.4959718971205,45.177913368934455,176.9276701701632,21.418216513575487,208.91102883132785
320,1.28,1,0,8.163790877661526,28.141518783992222,7.96194502804413,70.8817223515349,6.535406050700203,152.69769217951432,-40.41531628366465,387.2047867409185,-50.01242303580932,243.16996582189097,27.746885053370917,199.48753923534275,-44.937272065001395,204.13206675375557,7.314200197708317,220.8046678608871
321,1.284,1,0,6.345500889854156,34.83494595068989,-4.434085028840791,87.78191051240475,-25.952841747178127,139.1984884793114,1.0580653418066532,179.82498262401157,51.575279693814885,126.65169159259196,130.75308483390526,31.8210220475856,197.8155722377277,-94.85947948833174,716.0374374401368,-200.35318204513038
322,1.288,1,0,4.867233948871288,39.07558466738701,-11.885350394618541,88.88581581048008,-9.641466803180094,98.78699761425334,48.10786714488624,52.08117185078112,193.47606835485954,14.505263435014072,613.4847902098,-80.70145688410327,275.2115182383801,114.90925191377634,248.32632028853723,308.94429402846845
323,1.292,1,0,2.8980680859544083,42.476553878409064,-17.35785523003247,79.16343116112853,26.455076105722345,48.61779878698573,134.30749120376174,-56.43026337346643,268.4398607424032,1.526873315379376,337.12769377070714,196.69593627550717,-82.64612392331051,243.8307351445636,-58.3444307043566,308.3824223329345
324,1.296,1,0,1.806876871495751,48.99385382463548,-8.32777849311897,62.99595598640205,67.2445398646634,12.303323892199408,139.01870626955548,-17.380986672223614,112.35510725708119,150.595588612505,9.150997749401967,376.80196869707515,50.71108122072948,268.4266163023263,275.09037379462256,-69.53345307551928
325,1.3,1,0,0.11449287973757194,50.6634187102689,-3.787842077154828,38.75884946820971,100.04529398095906,-23.998145456538936,145.95846106043962,95.39669235820726,-3.2585939512271125,206.9142758614774,37.57612675288344,107.13067787798454,282.0592391070623,5.714146984894683,346.12393593817694,247.69012236421403
326,1.304,1,0,-0.800148991071131,46.093434752736286,14.375845526139942,15.262047158400588,125.77940203510377,-14.763949442582472,99.55475528478257,195.88593132931277,-48.73098643584024,117.43006782688796,189.99209660463265,39.41343309066707,179.93830645872347,431.1180715848949,-40.01396459494288,454.41801507313346
327,1.308,1,0,-1.8612797699509525,46.468499392708225,28.82900884839569,-17.684504015132525,108.25240414509472,59.87412545028996,-33.013882917297394,207.20158484771486,93.19473183051818,-36.49282534744199,232.43390528355854,129.13199409586565,24.002928517144753,327.94749898182874,157.4940023603957,-49.51503806899302
328,1.312,1,0,-2.702719443567922,41.26629046047536,42.90958190976058,-21.03154191839507,77.2682704317547,124.65374042009688,-58.79872413446833,82.08846575556379,175.34206437319486,-29.030448804907508,65.29820048282701,218.20732020005232,37.267689749850035,79.58354729937021,366.77474995905163,158.40862645705883
329,1.316,1,0,-3.840140963039861,36.5262435039522,58.52858934900544,-3.7888610045264244,38.283507213742666,160.78326004012789,39.428432417346905,-41.845782182364744,226.24574444800237,147.19333826200003,-101.69395491847027,141.09256454847656,388.08331913052524,-1.2268064069353386,33.5195977992521,415.705552043682
330,1.32,1,0,-4.261835584109159,29.1671842670537,64.20801531021058,1.531966646467609,2.6225590115566106,110.9047828180532,105.87266440790026,-62.82500389055514,40.20774974409796,223.3953411920874,109.59426267264648,-30.002047330675992,189.40106513821954,303.8626667691367,116.89388481202911,-59.71876033870802
331,1.324,1,0,-4.419233255993252,22.303979988560226,72.3553808432581,35.00835856869174,-22.84424890282436,68.30064363392049,167.18604526980232,66.10311997998184,-80.51255446091452,251.78227987594636,291.18441914067057,85.28287386405988,-124.20982675377618,196.09650458427035,411.8724916573469,181.31086609007818
332,1.328,1,0,-4.1058530000183,15.55086016676065,67.00727681114464,62.14233922789816,-23.53504438587055,16.334336106609655,119.57143611603678,135.83589051456303,3.3481320171725173,-82.13075257786375,178.71147273513984,253.58345895358903,238.55563418940167,27.458081161424502,139.41030387121853,648.0919503828145
333,1.332,1,0,-3.9539051047941274,7.666612276135085,60.0738948810981,79.54164289546449,19.518187271863184,-33.16757329574416,66.57383606070174,203.1199217893087,136.58959773549822,-0.5475417124677051,-69.57495329629026,155.04710205597377,593.6764834354198,178.62748350401134,-38.24379290462744,-0.6708179844353594
334,1.336,1,0,-3.64820563321787,2.232064358475885,51.187186123085326,103.49890939938896,62.294938441163616,-19.805949005014995,-6.213310728295468,100.23530489075584,232.20215661505966,154.69516537938293,-29.94629174658448,-70.99818565474212,277.10907517124707,269.85170455041157,236.76363953652364,-16.169582907004298
335,1.34,1,0,-2.6734935308553975,-3.01333482927976,35.780056493141586,87.12472317094497,103.04810809509101,42.54565871294581,-59.61055024247574,18.240608424236747,145.21884712710863,215.72815373761364,246.73888395490712,47.330559897469044,-123.58937603819741,94.47565085960727,219.53385447982396,507.94923713415164
336,1.344,1,0,-2.2970559093920073,-5.475758053372871,20.26458000372717,70.80344776999223,104.53473038507354,94.65091013352854,36.23556019537987,-64.80513272961818,10.175946636760898,120.00180940219137,231.53306347773974,587.7641533758768,138.96092238899024,88.57315146512613,-133.43616111253482,74.0371397935021
337,1.348,1,0,-1.2070499483515977,-9.011006430565402,9.151455500244818,54.42391294571601,111.67530224675491,161.5423841035726,117.64028058768974,46.044328577439714,-112.76703751593817,-67.86598742945378,76.65721175930597,350.13511876993897,321.297054819046,387.6414413028441,320.3088777299457,-105.89971738493676
338,1.352,1,0,0.4617807768965019,-6.602503336935815,-0.6801962863576136,22.52858213087657,78.75629517546317,133.07831165773254,181.2317322218748,127.58809877952172,152.48492548532832,-18.881392111273797,-73.79086690706467,29.565371037524045,91.33581233437329,258.0782828668185,559.7492430123045,386.6237895323673
339,1.356,1,0,1.391361530622575,-6.0839562357322094,-10.843924920882344,7.820661327483953,36.493817931366415,93.75002894852662,174.65824177103914,200.38001818363023,343.6818808432443,141.88267425088662,95.8647285036034,45.57669067336434,60.31534446422032,-155.37788641981916,-85.83232597900971,138.20579103050108
340,1.36,1,0,3.0331373344331762,-3.6686392513268267,-10.21681970213951,-14.320536680550134,-1.516560824266186,23.706409465533575,78.04758090718742,128.46630531927798,161.07086393282282,171.01922105304348,200.47473294597037,246.25200173398798,210.14486501312848,124.63840969034278,14.407151685341745,-68.07886395141128
341,1.364,1,0,4.616782762981618,2.036380674392827,-4.69926251128701,-15.860228037522297,-23.209401010259313,-13.132135562023194,-3.37850184596698,9.024669438756462,63.107697382517365,137.46936065425882,222.20826527773684,247.4297074418522,303.5222510928804,846.8833026031599,308.109266849092,360.1038737217053
342,1.368,1,0,6.323838726261853,7.333562163225672,1.5402131953399696,-10.771729935368349,-18.86270913962609,-34.89083506782343,5.371946102357953,-50.55957862986435,-26.748367515124215,-62.46876609919229,28.3697374314778,41.19338620409951,-3.3580635819585325,149.33992439286715,131.62956764706934,177.4257399490032
343,1.372,1,0,8.149092708935267,13.834304257253837,18.248947911987656,20.13747780756469,21.16978028019899,14.754179519494215,2.962936644282678,-14.350456108749484,-9.990349904607868,-14.862921917914036,-51.001337457681245,61.37737532813258,53.45970129035341,-162.50800282745013,-129.4520842099738,-119.63647327050063
344,1.376,1,0,10.000000000000902,21.4867282697468,34.38740507947694,48.12821979280855,64.17897511632562,85.73192711254129,108.57508113715255,134.3033145699565,146.06000407727447,144.59731037007492,372.1997586556408,243.81774452999738,235.32713608135737,205.80616643655804,305.52020791330824,247.07275104423323
345,1.38,1,0,11.84535861050614,28.07292364098975,52.10932899111223,69.64296063088707,94.95921084861465,124.82386589697623,146.92903723343022,184.84732816669452,203.21182988100549,265.82440449939986,497.94691281602263,326.8517540833596,321.9379142600691,331.2395277090983,178.50686706696865,184.18126739128311
346,1.384,1,0,13.467219081353235,35.30068260090542,61.09237715190079,90.23807759365332,126.60677312107302,120.95050614391461,173.94687348506636,190.50490118956105,133.16671296561927,116.95194658691102,190.5873732926521,32.82778428250437,52.486029562646635,62.472545833992164,-169.2598422809378,-245.59386624840988
347,1.388,1,0,15.299473995916658,40.46071906233992,73.48349876882688,96.2777160132627,106.54981645849179,101.54980208846474,95.39069918143545,63.81298488214176,38.63839619580285,-75.5193860058464,24.829544247914257,14.712074577398468,59.2390534702422,49.47586612672171,165.45645021460498,572.6772715993318
348,1.392,1,0,16.989275540196306,42.16899651192579,66.61665422625023,90.9898271528244,76.42310701119547,47.340847359046776,-12.768999350344416,-7.519850254899282,10.189205797468475,-45.42316724712779,89.8139559628759,198.5218449968994,246.4040704582962,253.9283768796071,343.1023370554369,627.374104985116
349,1.396,1,0,18.517831159808278,45.87919819054879,65.2495434957684,69.41111148896469,35.842251630040685,-10.128595904925788,-24.97651487345918,16.249239252556862,52.636145546504366,169.73939502616963,211.37910254939544,304.9989981575421,184.0979693895363,136.01467651991035,9.509221359809374,-81.53084345607223
350,1.4,1,0,19.595863633685035,49.842823971229805,58.80398890051195,38.86722605914459,-14.441059916647447,-13.161299750353507,-13.917975500698418,184.70109997241414,178.7510317532948,231.1726038793425,229.05905677024214,76.64871565152694,-3.5238986221530695,-78.04762751868793,88.2390494035831,182.05887675351192
351,1.404,1,0,20.382919822240027,46.91264333272608,47.333811713228386,13.027248462457205,-32.466381633745954,1.9963324311616832,86.15532475787573,321.3640345996379,200.54300485836325,121.590857977728,34.31630286736906,-134.3149925377671,122.39684006092621,225.20020342246113,468.4358482161678,458.37426462858224
352,1.408,1,0,22.262703457793975,46.96828067605463,31.036379094291508,-0.6775976269451647,-10.694874164999241,59.861023811333425,137.14921888504645,195.77543748666852,86.61780624417906,30.710697254764582,-75.78378353165883,127.18058207786741,654.0770042101489,393.330512991231,267.4617213494243,43.850492817552976
353,1.412,1,0,22.390335422163318,39.93321944285081,16.43129258640794,-17.395288674406302,14.410994855930362,104.8582382753238,162.8016827178946,81.96422054718222,-11.44010630687599,-28.253873058016012,158.82719021535365,192.57857520401018,409.94244515954824,-42.034685056483994,-49.89423030371353,159.53550091205815
354,1.416,1,0,22.97899273438366,34.79385303147997,-2.1674162301504367,-6.405129623158466,65.14619547224694,120.57395169464931,99.81655489680506,3.8283612739750197,23.269729490612917,185.31686376301718,270.65970214992694,128.87499642562224,-153.230793234871,-7.3582431814481595,594.4476701735227,302.0828041235083
355,1.42,1,0,24.585536348644762,29.38660602562051,-6.738821170090908,9.428855395267611,113.16477218621317,138.61693246303975,13.134061106935924,-6.266764279072532,127.11743687188138,206.19950971503727,110.4361042111817,-40.299068734133726,103.57624318035073,423.1499253421787,190.56417616080645,-92.27036225472162
356,1.424,1,0,24.15684156948459,21.939542242049153,-11.990093407272703,34.58891856683143,116.02957085661147,69.83601059773808,-6.537887748528789,59.191353448597226,217.90174098893922,260.243857176581,25.69779290826841,179.57287116709827,384.7190505906701,156.215004430806,-41.60624340635846,111.45833436768767
357,1.428,1,0,23.749942014365338,14.933801651240772,-8.064945706663742,65.06510425739708,119.6289593700641,24.714029028961264,17.67127986292607,174.19467987577065,165.5173394005834,-39.58633959242263,72.60103382547942,426.1040225172227,159.52344621710327,-64.03689462816493,170.4711885956093,236.87735729863232
358,1.432,1,0,23.48385346006971,8.27138688364853,1.0860215034871317,83.79673294119593,74.42265416089582,-36.123889817116805,75.87571490214657,221.35111541625636,44.22755327326356,-48.08605343435141,178.15547669465704,366.5672891518726,-115.82358044734664,334.82374650814614,325.00797356962903,-30.77839309054977
359,1.436,1,0,23.28977879293299,3.0037288409907035,5.41192864783579,87.60968377692487,38.91016428093272,-13.220516291071092,135.5436652468992,121.25336008425809,-45.166746565142574,133.57377570931396,178.39776715066995,-59.093314927287,124.16393839387275,636.8487437524789,93.89463739071738,41.30484000838136
360,1.44,1,0,22.6231799215225,-1.2942536262781381,24.550161939197164,83.70192090598357,3.9911678354321296,37.44290131602802,190.16252011329055,7.804371649716843,29.730397774380585,269.03540852373357,-16.775879045579998,5.7274849383357065,271.12681379376886,114.28187311026275,-45.04100924433013,510.1815702924648
361,1.444,1,0,21.920382424450548,-6.894219425722035,39.755796192792836,84.84926481091301,-33.57403037576917,102.4230830768436,228.7684742185517,-43.18010868705731,201.74324601047402,125.29498497785931,-13.147554477942577,339.76575838879035,111.14518495440751,44.41663718444612,314.3945887007821,164.14153822916214
362,1.448,1,0,21.13885837279541,-8.284531538714603,52.765918096019504,54.30906656047718,-0.37120703387270026,136.6733212799037,61.44182905382289,52.3401174957926,174.32071798619785,-74.17539913485948,148.02846340422002,192.00140571546774,-23.572911319479942,369.80690166578097,145.326445141451,127.78978875470933
363,1.452,1,0,19.991765353949273,-10.545863235986154,61.94519625605765,27.200299884451624,22.403077764933172,121.3367636341338,-26.374687471019712,127.92528461492633,98.14066879284914,15.038852099268922,317.18760091062006,-5.816413242991601,144.86007523873877,268.24733835103154,-124.42742928334947,828.6231037578613
364,1.456,1,0,18.59949644596785,-4.209748883795239,70.47181535856296,-1.9469834029441702,64.75056053897865,92.64451369206196,6.295117607090738,218.1302542673395,-75.70744112082667,147.1814179088981,131.69229382089165,75.31893853822112,403.68274141892164,-21.22480492240203,294.62981130567596,125.85801975833975
365,1.46,1,0,17.031451645966655,-5.203188859490357,66.90997612838841,-3.6503790734640518,105.29246731136733,31.387088555987248,64.69163737939854,158.83134505105517,-23.266723701464315,208.57297156808687,38.69919898564652,196.0009463669188,59.82138646968481,126.08770926840639,311.875582206039,-106.74767189191493
366,1.464,1,0,15.425376377083243,0.7968140953827785,66.79825895919521,-12.239531688712951,118.7037839230101,-5.838743107108172,136.51544570002665,15.016789476880419,201.98610758158196,134.2310775591817,111.88119182570165,198.01918750604676,-75.44924991140161,225.98105298812624,-166.37746159082093,279.90246139495656
367,1.468,1,0,13.592459152977042,7.053870174332795,53.635918710109365,-7.66213115888538,97.89791586557325,-39.83729067902668,165.11241115194383,-46.61675801311833,158.25616121748106,-15.2943385738718,477.7657189567258,20.370532078835467,172.33609853721717,73.43744084097563,156.5768210197423,175.71026614236092
368,1.472,1,0,11.731050549288799,13.84956952801042,40.83958611046809,17.044323188758863,80.26363934894175,24.09830155981146,115.96254444723718,19.281316709541827,211.23159770972575,-0.9925999368776388,414.89237740466154,47.43857125997923,201.695846851443,-45.95964232858958,675.522774845349,59.83026734745647
369,1.476,1,0,9.99999999999904,21.495274111022425,26.01673772847531,47.194476267197764,37.606472902845276,80.14928328209389,34.264328803821215,103.28792589187286,58.943026337978694,186.84841610733585,40.25772930341448,249.7830945191312,25.38056727874934,240.19177374568562,109.68929102192558,385.15690675937674
370,1.48,1,0,8.198103763315077,28.588916179563867,10.275789508419702,76.15843855214598,-13.102642472287066,148.63080656683883,-20.006980676618156,171.04689987308635,-52.31456113007337,285.77699684763684,-108.10943981599706,210.74097108242643,-60.45574813553657,296.3647910669947,146.1940874477628,191.125019470718
371,1.484,1,0,6.485038735097881,35.62184787567078,-4.567283916408961,89.39254042189846,-5.351268766461374,158.02492667800166,-6.223853757147111,190.86981937280984,32.19890766400076,115.57186058186466,138.53569838998052,83.74567697729843,462.8015645919747,-142.22354961379938,474.2741946472956,-41.39741530212294
372,1.488,1,0,5.020737009813933,38.75971406095789,-6.635213781081411,91.17265834292273,-5.296501509312328,109.30773570454419,43.477081647143436,53.95634860217932,132.60703323363572,-0.12749181901865825,314.18546798577506,-131.87828151558972,596.5467686035445,108.78780407262916,139.50395060015944,326.70623721429877
373,1.492,1,0,3.5021428537003967,43.77891540241146,-7.751410493772369,82.30551777994286,23.67287559974902,51.48257087888189,137.4065449617915,-40.39290271305505,232.76945914176574,1.5256948498356024,142.07668189812554,168.05081557545833,-9.786114453724792,447.7078552989298,-141.57089363952713,353.9213319313344
374,1.496,1,0,1.567971253701879,48.68990909351446,-3.0599295232851205,63.139213725907815,62.79374976870568,-20.763008818990173,149.61124292502524,-14.939152558989491,129.0054274606706,173.72669506896813,16.13237589051137,285.5945725142378,54.9245452942659,134.09452740981638,261.50143870673236,-19.35563622391234
375,1.5,1,0,-0.10619029791223866,49.45282800775979,-3.9136705666320064,38.77043149625499,94.49370476939526,-49.71113782253178,112.22686906977407,87.22981573667896,21.35885315816975,189.4706300106816,0.756295362022712,79.2589929855865,219.85478769977504,-128.4022858729789,239.58864809035768,201.3947015179526
376,1.504,1,0,-1.385051918019979,47.445031428013095,11.035202011190453,16.10762090671737,135.06849314690385,6.808413639607373,54.034347573904505,218.0942521610265,23.684984764679825,117.29910501128013,189.6013914868229,7.899123660041852,239.20839859223062,410.9672794557179,92.21447525125637,726.187688343344
377,1.508,1,0,-2.420241349576628,42.54582026519965,28.83527028510177,-1.5057580970851845,115.17914422622044,59.91753953419255,-39.22724466294575,150.59773811853796,93.3819392833024,13.237286373217415,228.29139584944812,251.01019278476784,12.25606677594196,754.3119122052799,166.44492609584694,-232.63633774978507
378,1.512,1,0,-2.4022825791638382,42.01992021467756,44.533626188317584,-17.225592382527616,80.50127219235102,119.15104073501297,-39.8660496529517,82.56243522101059,178.0702899409998,-44.26810238142863,26.076494740150324,502.45065138871684,36.24192717669703,6.096348650150389,475.6241752177629,314.69837413991036
379,1.516,1,0,-3.709822124353332,35.27518085575704,61.241621128461794,-1.0275492350854307,33.6048956069488,124.38039471301718,44.8309068113891,-47.2668362046993,166.58813227009955,174.968707175279,21.906938610812205,131.57231001023757,315.6539690110189,82.07775656179709,-67.94549755150979,243.46923418589577
380,1.52,1,0,-3.4187860089980404,29.44922747546874,73.16297763754602,4.613602054000928,4.658283931690988,109.29995781504287,114.19190922318202,-10.617705876760908,69.60220593869192,240.15975803461626,109.5039629009216,13.966512729406219,164.58347975751775,337.2232141376526,53.30597385104646,-17.076102160653477
381,1.524,1,0,-4.651313034124845,22.316469981302685,70.8140026015208,33.31257113547311,-9.12551427293127,68.10280923082271,137.22833945698278,119.77532087682602,-72.00138918190214,244.69719101160658,196.90363701743536,69.40559185194459,3.1041453734432736,205.29765655647995,350.5373934347648,125.91891628044094
382,1.528,1,0,-3.412344396929363,14.920901367985767,65.90655626932136,65.93916699893616,-14.752327817466579,10.501202988358905,166.785173277678,363.3538813912161,35.768238112447214,9.548536550137186,136.628473757956,234.05747470697276,87.09314863261159,-42.19887067542257,145.87799012534546,515.0632262496356
